D:\Agilent\ICPMH\1\DATA\run.b\run.d
Intensity Vs Time,Counts
Acquired      : 2000-00-00 10:10:00 using Batch run.b
Time [Sec],Fe56 -> 56
240.52523,97.72
240.52533,301.10
240.52543,417.50
240.52553,420.15
240.52563,362.58
240.52573,273.78
240.52583,230.57
240.52593,227.36
240.52603,249.53
240.52613,248.83
240.52623,183.73
240.52633,131.73
240.52643,139.68
240.52653,125.18
240.52663,132.01
240.52673,136.89
240.52683,123.09
240.52693,115.84
240.52703,118.91
240.52713,116.12
240.52723,115.28
240.52733,89.22
240.52743,68.72
240.52753,56.74
240.52763,58.27
240.52773,65.10
240.52783,74.58
240.52793,90.33
240.52803,195.16
240.52813,286.19
240.52823,369.27
240.52833,303.75
240.52843,243.39
240.52853,163.24
240.52863,136.05
240.52873,129.08
240.52883,96.74
240.52893,74.16
240.52903,50.18
240.52913,62.03
240.52923,86.71
240.52933,101.07
240.52943,89.08
240.52953,87.96
240.52963,87.96
240.52973,79.18
240.52983,94.79
240.52993,85.73
240.53003,74.16
240.53013,79.46
240.53023,64.54
240.53033,78.20
240.53043,196.00
240.53053,221.37
240.53063,270.71
240.53073,276.15
240.53083,182.61
240.53093,125.04
240.53103,111.24
240.53113,94.65
240.53123,94.51
240.53133,83.92
240.53143,86.01
240.53153,121.14
240.53163,162.82
240.53173,185.68
240.53183,156.96
240.53193,124.62
240.53203,121.14
240.53213,93.82
240.53223,107.06
240.53233,119.88
240.53243,141.35
240.53253,125.32
240.53263,116.12
240.53273,114.73
240.53283,97.44
240.53293,87.68
240.53303,68.86
240.53313,125.60
240.53323,189.44
240.53333,207.43
240.53343,188.61
240.53353,141.21
240.53363,92.70
240.53373,86.01
240.53383,78.90
240.53393,66.35
240.53403,62.73
240.53413,63.29
240.53423,69.56
240.53433,84.48
240.53443,70.68
240.53453,68.17
240.53463,53.95
240.53473,64.54
240.53483,80.71
240.53493,51.02
240.53503,40.57
240.53513,52.55
240.53523,55.20
240.53533,75.97
240.53543,68.17
240.53553,74.44
240.53563,85.59
240.53573,107.76
240.53583,94.93
240.53593,71.09
240.53603,60.92
240.53613,52.28
240.53623,61.34
240.53633,72.77
240.53643,63.71
240.53653,50.46
240.53663,50.46
240.53673,78.90
240.53683,68.86
240.53693,62.59
240.53703,43.91
240.53713,50.18
240.53723,59.66
240.53733,64.82
240.53743,61.75
240.53753,73.60
240.53763,55.20
240.53773,77.65
240.53783,84.62
240.53793,67.47
240.53803,60.08
240.53813,68.03
240.53823,76.39
240.53833,84.62
240.53843,76.95
240.53853,69.28
240.53863,50.46
240.53873,68.58
240.53883,68.72
240.53893,54.51
240.53903,62.03
240.53913,80.02
240.53923,116.40
240.53933,105.25
240.53943,89.49
240.53953,62.45
240.53963,63.01
240.53973,94.93
240.53983,84.62
240.53993,81.69
240.54003,63.85
240.54013,80.02
240.54023,96.60
240.54033,96.74
240.54043,89.36
240.54053,90.19
240.54063,106.78
240.54073,82.39
240.54083,71.65
240.54093,71.65
240.54103,67.33
240.54113,92.28
240.54123,115.98
240.54133,118.07
240.54143,94.65
240.54153,135.17
240.54163,114.45
240.54173,117.70
240.54183,122.05
240.54193,163.99
240.54203,172.30
240.54213,207.15
240.54223,189.17
240.54233,189.58
240.54243,178.43
240.54253,151.25
240.54263,147.49
240.54273,142.19
240.54283,146.37
240.54293,144.00
240.54303,122.05
240.54313,104.74
240.54323,113.37
240.54333,94.03
240.54343,107.97
240.54353,90.83
240.54363,570.91
240.54373,755.13
240.54383,1115.90
240.54393,1143.64
240.54403,932.86
240.54413,610.15
240.54423,358.12
240.54433,243.53
240.54443,165.47
240.54453,96.16
240.54463,62.35
240.54473,62.35
240.54483,70.73
240.54493,72.83
240.54503,82.33
240.54513,85.51
240.54523,79.16
240.54533,100.45
240.54543,92.96
240.54553,78.10
240.54563,88.70
240.54573,71.78
240.54583,59.21
240.54593,72.83
240.54603,233.87
240.54613,273.08
240.54623,463.23
240.54633,506.16
240.54643,461.41
240.54653,309.19
240.54663,220.39
240.54673,177.46
240.54683,141.07
240.54693,103.67
240.54703,135.17
240.54713,128.59
240.54723,158.40
240.54733,160.73
240.54743,99.37
240.54753,88.70
240.54763,89.76
240.54773,101.52
240.54783,104.74
240.54793,74.93
240.54803,84.45
240.54813,60.26
240.54823,61.30
240.54833,55.05
240.54843,65.48
240.54853,91.89
240.54863,79.16
240.54873,74.93
240.54883,71.78
240.54893,64.44
240.54903,65.48
240.54913,81.27
240.54923,136.27
240.54933,113.37
240.54943,116.62
240.54953,80.21
240.54963,72.83
240.54973,63.39
240.54983,77.04
240.54993,90.83
240.55003,86.57
240.55013,77.04
240.55023,89.76
240.55033,105.82
240.55043,170.72
240.55053,188.19
240.55063,259.70
240.55073,284.38
240.55083,271.27
240.55093,221.09
240.55103,148.88
240.55113,104.74
240.55123,94.03
240.55133,116.62
240.55143,163.99
240.55153,140.79
240.55163,141.77
240.55173,141.77
240.55183,115.54
240.55193,116.62
240.55203,113.37
240.55213,92.96
240.55223,92.96
240.55233,99.37
240.55243,100.45
240.55253,91.89
240.55263,82.33
240.55273,89.76
240.55283,82.33
240.55293,84.45
240.55303,90.83
240.55313,84.45
240.55323,88.70
240.55333,82.33
240.55343,168.47
240.55353,589.94
240.55363,5804.34
240.55373,8960.21
240.55383,9561.45
240.55393,7509.62
240.55403,4655.96
240.55413,2559.11
240.55423,1315.10
240.55433,736.31
240.55443,395.62
240.55453,243.25
240.55463,160.03
240.55473,67.58
240.55483,82.25
240.55493,63.39
240.55503,75.42
240.55513,113.05
240.55523,137.03
240.55533,157.80
240.55543,134.80
240.55553,114.31
240.55563,96.74
240.55573,105.11
240.55583,124.48
240.55593,132.29
240.55603,83.22
240.55613,76.95
240.55623,80.57
240.55633,92.56
240.55643,75.00
240.55653,60.50
240.55663,103.71
240.55673,121.70
240.55683,118.49
240.55693,110.40
240.55703,84.62
240.55713,66.49
240.55723,56.18
240.55733,62.87
240.55743,76.39
240.55753,71.37
240.55763,75.55
240.55773,77.79
240.55783,96.60
240.55793,92.42
240.55803,71.65
240.55813,89.08
240.55823,168.67
240.55833,219.28
240.55843,209.52
240.55853,186.80
240.55863,158.08
240.55873,117.65
240.55883,85.31
240.55893,79.32
240.55903,82.80
240.55913,130.76
240.55923,180.38
240.55933,197.53
240.55943,164.77
240.55953,122.39
240.55963,109.15
240.55973,115.98
240.55983,102.18
240.55993,106.92
240.56003,156.82
240.56013,164.35
240.56023,180.80
240.56033,162.68
240.56043,129.36
240.56053,114.17
240.56063,76.53
240.56073,75.28
240.56083,74.86
240.56093,69.70
240.56103,55.62
240.56113,63.71
240.56123,92.14
240.56133,137.03
240.56143,238.79
240.56153,279.36
240.56163,265.42
240.56173,245.20
240.56183,173.55
240.56193,116.26
240.56203,92.98
240.56213,84.06
240.56223,63.43
240.56233,77.23
240.56243,70.95
240.56253,86.29
240.56263,89.08
240.56273,90.05
240.56283,95.35
240.56293,85.17
240.56303,81.55
240.56313,74.02
240.56323,99.95
240.56333,101.90
240.56343,93.96
240.56353,73.32
240.56363,81.83
240.56373,67.05
240.56383,75.83
240.56393,86.15
240.56403,92.00
240.56413,190.00
240.56423,343.76
240.56433,501.70
240.56443,467.69
240.56453,401.75
240.56463,275.04
240.56473,181.78
240.56483,112.77
240.56493,103.02
240.56503,76.95
240.56513,67.47
240.56523,69.98
240.56533,58.55
240.56543,61.75
240.56553,71.93
240.56563,187.77
240.56573,264.02
240.56583,291.49
240.56593,276.71
240.56603,213.42
240.56613,160.87
240.56623,115.42
240.56633,105.11
240.56643,106.78
240.56653,118.77
240.56663,79.18
240.56673,66.77
240.56683,73.88
240.56693,55.34
240.56703,51.86
240.56713,51.02
240.56723,60.36
240.56733,92.00
240.56743,110.13
240.56753,103.16
240.56763,100.93
240.56773,102.46
240.56783,110.82
240.56793,109.43
240.56803,96.33
240.56813,84.06
240.56823,110.27
240.56833,127.41
240.56843,146.79
240.56853,135.64
240.56863,95.49
240.56873,83.08
240.56883,90.47
240.56893,79.16
240.56903,83.39
240.56913,68.63
240.56923,55.05
240.56933,83.39
240.56943,126.41
240.56953,114.45
240.56963,116.62
240.56973,91.89
240.56983,79.16
240.56993,103.67
240.57003,70.73
240.57013,67.58
240.57023,73.88
240.57033,110.13
240.57043,104.74
240.57053,148.40
240.57063,142.75
240.57073,116.62
240.57083,156.17
240.57093,188.47
240.57103,367.74
240.57113,403.84
240.57123,373.03
240.57133,315.18
240.57143,404.12
240.57153,371.50
240.57163,357.28
240.57173,260.68
240.57183,202.27
240.57193,152.78
240.57203,118.79
240.57213,59.21
240.57223,98.30
240.57233,96.16
240.57243,97.23
240.57253,104.74
240.57263,74.93
240.57273,83.39
240.57283,74.93
240.57293,84.45
240.57303,75.99
240.57313,81.27
240.57323,91.89
240.57333,107.97
240.57343,120.96
240.57353,116.62
240.57363,104.74
240.57373,104.74
240.57383,136.27
240.57393,148.74
240.57403,260.26
240.57413,248.97
240.57423,225.13
240.57433,174.67
240.57443,205.89
240.57453,460.44
240.57463,565.27
240.57473,601.09
240.57483,488.18
240.57493,363.69
240.57503,253.99
240.57513,180.10
240.57523,143.72
240.57533,64.44
240.57543,66.53
240.57553,97.23
240.57563,97.23
240.57573,74.93
240.57583,73.88
240.57593,86.57
240.57603,74.93
240.57613,68.63
240.57623,51.94
240.57633,47.79
240.57643,69.68
240.57653,75.99
240.57663,79.16
240.57673,97.23
240.57683,96.16
240.57693,88.70
240.57703,95.09
240.57713,333.11
240.57723,385.30
240.57733,480.37
240.57743,552.16
240.57753,507.00
240.57763,462.67
240.57773,378.19
240.57783,326.34
240.57793,216.77
240.57803,163.93
240.57813,109.05
240.57823,104.74
240.57833,80.21
240.57843,71.78
240.57853,55.05
240.57863,100.45
240.57873,77.04
240.57883,100.45
240.57893,98.30
240.57903,97.23
240.57913,112.29
240.57923,96.16
240.57933,120.96
240.57943,125.32
240.57953,99.37
240.57963,87.63
240.57973,201.39
240.57983,299.57
240.57993,766.28
240.58003,921.85
240.58013,891.04
240.58023,684.73
240.58033,518.85
240.58043,350.73
240.58053,223.32
240.58063,144.00
240.58073,125.32
240.58083,107.97
240.58093,80.21
240.58103,102.59
240.58113,102.59
240.58123,119.88
240.58133,133.55
240.58143,144.42
240.58153,120.86
240.58163,94.03
240.58173,104.27
240.58183,131.73
240.58193,145.95
240.58203,144.00
240.58213,62.35
240.58223,83.39
240.58233,54.01
240.58243,193.38
240.58253,250.92
240.58263,745.93
240.58273,980.96
240.58283,976.78
240.58293,747.46
240.58303,476.33
240.58313,307.38
240.58323,203.66
240.58333,148.74
240.58343,57.13
240.58353,57.13
240.58363,62.35
240.58373,56.09
240.58383,88.70
240.58393,71.78
240.58403,77.04
240.58413,73.88
240.58423,99.37
240.58433,92.96
240.58443,101.52
240.58453,147.29
240.58463,166.72
240.58473,274.76
240.58483,319.23
240.58493,309.19
240.58503,231.26
240.58513,191.81
240.58523,152.64
240.58533,110.13
240.58543,107.97
240.58553,86.57
240.58563,148.40
240.58573,151.53
240.58583,184.29
240.58593,196.83
240.58603,159.06
240.58613,146.09
240.58623,96.16
240.58633,87.63
240.58643,112.29
240.58653,78.10
240.58663,77.04
240.58673,78.10
240.58683,82.33
240.58693,102.59
240.58703,86.57
240.58713,100.45
240.58723,74.93
240.58733,87.63
240.58743,74.93
240.58753,75.99
240.58763,99.37
240.58773,95.09
240.58783,74.93
240.58793,82.33
240.58803,70.73
240.58813,45.73
240.58823,73.88
240.58833,50.90
240.58843,50.90
240.58853,61.30
240.58863,69.68
240.58873,62.35
240.58883,69.68
240.58893,62.35
240.58903,122.05
240.58913,142.61
240.58923,224.43
240.58933,253.85
240.58943,250.78
240.58953,206.45
240.58963,157.66
240.58973,92.96
240.58983,77.04
240.58993,72.83
240.59003,78.10
240.59013,98.30
240.59023,49.86
240.59033,81.27
240.59043,84.45
240.59053,92.96
240.59063,75.99
240.59073,91.89
240.59083,89.76
240.59093,123.14
240.59103,150.62
240.59113,146.79
240.59123,168.53
240.59133,199.20
240.59143,180.38
240.59153,181.36
240.59163,202.83
240.59173,187.07
240.59183,162.12
240.59193,142.05
240.59203,132.97
240.59213,140.79
240.59223,98.30
240.59233,68.63
240.59243,85.51
240.59253,74.93
240.59263,61.30
240.59273,75.99
240.59283,52.97
240.59293,70.73
240.59303,70.73
240.59313,72.83
240.59323,67.58
240.59333,74.93
240.59343,63.39
240.59353,65.48
240.59363,83.39
240.59373,95.09
240.59383,124.23
240.59393,82.33
240.59403,83.39
240.59413,83.39
240.59423,88.70
240.59433,151.73
240.59443,151.95
240.59453,222.90
240.59463,193.63
240.59473,184.57
240.59483,146.09
240.59493,161.75
240.59503,168.26
240.59513,389.20
240.59523,480.93
240.59533,479.12
240.59543,404.54
240.59553,259.42
240.59563,182.06
240.59573,112.29
240.59583,84.89
240.59593,74.86
240.59603,80.71
240.59613,60.92
240.59623,77.79
240.59633,86.85
240.59643,89.22
240.59653,99.95
240.59663,88.24
240.59673,80.99
240.59683,72.77
240.59693,81.97
240.59703,95.49
240.59713,91.73
240.59723,75.28
240.59733,62.45
240.59743,79.60
240.59753,91.45
240.59763,81.41
240.59773,62.17
240.59783,54.09
240.59793,52.14
240.59803,57.01
240.59813,60.78
240.59823,47.81
240.59833,58.55
240.59843,82.25
240.59853,87.40
240.59863,70.12
240.59873,133.96
240.59883,391.44
240.59893,486.09
240.59903,481.21
240.59913,335.95
240.59923,251.34
240.59933,195.72
240.59943,175.09
240.59953,148.18
240.59963,126.44
240.59973,94.65
240.59983,88.94
240.59993,70.40
240.60003,70.95
240.60013,73.74
240.60023,69.42
240.60033,71.23
240.60043,70.54
240.60053,67.33
240.60063,108.31
240.60073,166.16
240.60083,196.00
240.60093,192.37
240.60103,186.10
240.60113,208.96
240.60123,164.77
240.60133,157.38
240.60143,157.38
240.60153,138.01
240.60163,143.72
240.60173,104.97
240.60183,99.53
240.60193,100.65
240.60203,82.94
240.60213,76.95
240.60223,54.64
240.60233,48.09
240.60243,57.01
240.60253,68.17
240.60263,61.06
240.60273,64.40
240.60283,85.87
240.60293,108.04
240.60303,109.43
240.60313,127.27
240.60323,121.70
240.60333,104.83
240.60343,96.19
240.60353,93.12
240.60363,81.13
240.60373,60.36
240.60383,56.18
240.60393,80.99
240.60403,88.24
240.60413,58.69
240.60423,62.17
240.60433,115.14
240.60443,219.97
240.60453,270.58
240.60463,303.61
240.60473,241.86
240.60483,170.07
240.60493,128.25
240.60503,109.01
240.60513,94.65
240.60523,73.60
240.60533,69.98
240.60543,57.99
240.60553,62.31
240.60563,69.14
240.60573,77.79
240.60583,66.77
240.60593,76.25
240.60603,90.19
240.60613,198.09
240.60623,406.49
240.60633,507.83
240.60643,457.79
240.60653,380.84
240.60663,279.64
240.60673,198.09
240.60683,142.88
240.60693,123.09
240.60703,102.18
240.60713,95.91
240.60723,145.81
240.60733,135.91
240.60743,113.61
240.60753,120.30
240.60763,101.76
240.60773,97.30
240.60783,126.30
240.60793,100.51
240.60803,99.39
240.60813,89.36
240.60823,75.28
240.60833,62.73
240.60843,96.60
240.60853,105.80
240.60863,80.71
240.60873,57.99
240.60883,64.40
240.60893,72.35
240.60903,110.27
240.60913,130.48
240.60923,111.66
240.60933,126.85
240.60943,141.07
240.60953,154.73
240.60963,170.21
240.60973,141.77
240.60983,109.71
240.60993,106.92
240.61003,79.16
240.61013,87.63
240.61023,111.21
240.61033,117.70
240.61043,98.30
240.61053,81.27
240.61063,79.16
240.61073,62.35
240.61083,70.73
240.61093,99.37
240.61103,143.98
240.61113,152.22
240.61123,156.96
240.61133,110.13
240.61143,92.96
240.61153,111.21
240.61163,132.97
240.61173,128.59
240.61183,116.62
240.61193,102.59
240.61203,100.45
240.61213,112.29
240.61223,92.96
240.61233,92.96
240.61243,79.16
240.61253,92.96
240.61263,104.74
240.61273,89.76
240.61283,92.96
240.61293,123.14
240.61303,128.59
240.61313,109.05
240.61323,116.62
240.61333,111.21
240.61343,98.30
240.61353,103.67
240.61363,97.23
240.61373,74.93
240.61383,83.39
240.61393,84.45
240.61403,54.01
240.61413,65.48
240.61423,46.76
240.61433,69.68
240.61443,150.62
240.61453,202.13
240.61463,497.38
240.61473,624.93
240.61483,538.22
240.61493,432.00
240.61503,458.07
240.61513,687.80
240.61523,775.48
240.61533,674.14
240.61543,521.22
240.61553,338.88
240.61563,206.73
240.61573,115.54
240.61583,81.27
240.61593,99.37
240.61603,109.05
240.61613,102.59
240.61623,101.52
240.61633,161.75
240.61643,156.41
240.61653,179.83
240.61663,179.97
240.61673,159.75
240.61683,127.50
240.61693,117.70
240.61703,87.63
240.61713,103.67
240.61723,91.89
240.61733,75.99
240.61743,88.70
240.61753,94.03
240.61763,109.05
240.61773,101.52
240.61783,83.39
240.61793,71.78
240.61803,85.51
240.61813,86.57
240.61823,113.37
240.61833,177.48
240.61843,169.65
240.61853,213.98
240.61863,191.12
240.61873,159.47
240.61883,156.17
240.61893,96.16
240.61903,117.70
240.61913,140.67
240.61923,156.82
240.61933,230.15
240.61943,263.05
240.61953,257.19
240.61963,275.87
240.61973,326.75
240.61983,279.92
240.61993,246.60
240.62003,192.09
240.62013,114.45
240.62023,87.63
240.62033,71.78
240.62043,54.01
240.62053,72.83
240.62063,59.21
240.62073,79.16
240.62083,129.69
240.62093,158.40
240.62103,158.36
240.62113,167.56
240.62123,171.04
240.62133,149.30
240.62143,125.32
240.62153,112.29
240.62163,101.52
240.62173,97.23
240.62183,110.13
240.62193,124.23
240.62203,140.67
240.62213,142.88
240.62223,99.37
240.62233,84.45
240.62243,133.13
240.62253,2594.65
240.62263,6052.47
240.62273,7269.43
240.62283,6383.54
240.62293,4215.18
240.62303,2396.15
240.62313,1342.56
240.62323,733.24
240.62333,400.08
240.62343,220.39
240.62353,157.24
240.62363,82.33
240.62373,91.89
240.62383,112.29
240.62393,149.51
240.62403,160.73
240.62413,102.59
240.62423,98.30
240.62433,96.16
240.62443,120.96
240.62453,184.01
240.62463,1875.91
240.62473,3841.86
240.62483,4506.80
240.62493,3910.45
240.62503,2686.10
240.62513,1505.94
240.62523,875.71
240.62533,529.58
240.62543,361.46
240.62553,251.48
240.62563,201.43
240.62573,157.24
240.62583,269.44
240.62593,280.61
240.62603,359.79
240.62613,384.05
240.62623,319.64
240.62633,241.16
240.62643,153.90
240.62653,152.50
240.62663,118.79
240.62673,96.16
240.62683,102.59
240.62693,89.76
240.62703,101.52
240.62713,94.03
240.62723,72.83
240.62733,82.33
240.62743,77.04
240.62753,63.39
240.62763,73.88
240.62773,149.51
240.62783,109.05
240.62793,69.68
240.62803,88.70
240.62813,88.70
240.62823,95.09
240.62833,101.52
240.62843,118.79
240.62853,138.46
240.62863,143.02
240.62873,140.24
240.62883,126.41
240.62893,135.17
240.62903,140.79
240.62913,97.23
240.62923,86.57
240.62933,94.03
240.62943,87.63
240.62953,95.09
240.62963,85.51
240.62973,74.93
240.62983,79.16
240.62993,80.21
240.63003,67.58
240.63013,64.44
240.63023,63.39
240.63033,70.73
240.63043,87.63
240.63053,100.45
240.63063,89.76
240.63073,119.88
240.63083,184.98
240.63093,608.20
240.63103,754.15
240.63113,766.84
240.63123,563.04
240.63133,386.70
240.63143,239.91
240.63153,153.76
240.63163,94.03
240.63173,79.16
240.63183,101.52
240.63193,128.59
240.63203,106.89
240.63213,110.13
240.63223,103.67
240.63233,87.63
240.63243,105.82
240.63253,102.59
240.63263,81.27
240.63273,59.21
240.63283,71.78
240.63293,153.95
240.63303,170.90
240.63313,263.05
240.63323,273.50
240.63333,281.03
240.63343,322.71
240.63353,316.72
240.63363,314.07
240.63373,374.99
240.63383,398.96
240.63393,397.99
240.63403,321.46
240.63413,205.34
240.63423,152.92
240.63433,118.79
240.63443,103.67
240.63453,105.82
240.63463,83.39
240.63473,66.53
240.63483,62.35
240.63493,77.04
240.63503,62.35
240.63513,62.35
240.63523,69.68
240.63533,87.63
240.63543,128.59
240.63553,130.78
240.63563,114.45
240.63573,129.69
240.63583,107.97
240.63593,89.76
240.63603,99.37
240.63613,110.13
240.63623,115.54
240.63633,286.33
240.63643,342.23
240.63653,690.87
240.63663,795.83
240.63673,758.20
240.63683,599.14
240.63693,385.02
240.63703,299.01
240.63713,240.74
240.63723,206.31
240.63733,185.82
240.63743,113.37
240.63753,100.45
240.63763,88.70
240.63773,49.86
240.63783,39.55
240.63793,75.99
240.63803,75.99
240.63813,100.45
240.63823,123.14
240.63833,156.17
240.63843,153.48
240.63853,175.50
240.63863,184.84
240.63873,91.89
240.63883,90.83
240.63893,75.99
240.63903,87.63
240.63913,91.89
240.63923,99.37
240.63933,100.45
240.63943,72.83
240.63953,82.33
240.63963,59.21
240.63973,71.78
240.63983,77.04
240.63993,97.23
240.64003,112.29
240.64013,104.74
240.64023,110.13
240.64033,62.35
240.64043,161.75
240.64053,166.72
240.64063,220.11
240.64073,228.76
240.64083,187.63
240.64093,106.89
240.64103,113.37
240.64113,126.41
240.64123,167.35
240.64133,170.07
240.64143,194.88
240.64153,196.83
240.64163,154.04
240.64173,142.05
240.64183,110.13
240.64193,92.96
240.64203,85.51
240.64213,87.63
240.64223,67.58
240.64233,72.83
240.64243,58.17
240.64253,66.53
240.64263,75.99
240.64273,91.89
240.64283,107.97
240.64293,84.45
240.64303,59.21
240.64313,56.09
240.64323,55.05
240.64333,80.21
240.64343,64.44
240.64353,73.88
240.64363,74.93
240.64373,83.39
240.64383,82.33
240.64393,85.51
240.64403,80.21
240.64413,78.10
240.64423,77.04
240.64433,90.83
240.64443,116.62
240.64453,136.27
240.64463,98.30
240.64473,91.89
240.64483,99.37
240.64493,81.27
240.64503,95.09
240.64513,97.23
240.64523,97.23
240.64533,83.39
240.64543,79.16
240.64553,63.39
240.64563,72.83
240.64573,69.68
240.64583,48.83
240.64593,55.05
240.64603,68.63
240.64613,86.57
240.64623,73.88
240.64633,64.44
240.64643,71.78
240.64653,86.57
240.64663,85.51
240.64673,84.45
240.64683,78.10
240.64693,94.03
240.64703,68.63
240.64713,63.39
240.64723,69.68
240.64733,84.45
240.64743,75.99
240.64753,72.83
240.64763,67.58
240.64773,73.88
240.64783,64.44
240.64793,74.93
240.64803,69.68
240.64813,85.51
240.64823,106.89
240.64833,94.03
240.64843,112.29
240.64853,100.45
240.64863,97.23
240.64873,85.51
240.64883,143.98
240.64893,166.23
240.64903,149.16
240.64913,155.01
240.64923,147.76
240.64933,100.45
240.64943,78.10
240.64953,67.58
240.64963,65.48
240.64973,61.30
240.64983,68.63
240.64993,60.26
240.65003,92.96
240.65013,99.37
240.65023,130.78
240.65033,127.50
240.65043,139.56
240.65053,133.27
240.65063,137.03
240.65073,142.33
240.65083,141.07
240.65093,83.39
240.65103,68.63
240.65113,77.04
240.65123,71.78
240.65133,69.70
240.65143,67.58
240.65153,48.83
240.65163,64.44
240.65173,65.48
240.65183,64.44
240.65193,56.09
240.65203,56.09
240.65213,45.73
240.65223,57.13
240.65233,81.27
240.65243,99.37
240.65253,89.76
240.65263,88.70
240.65273,91.89
240.65283,94.03
240.65293,119.88
240.65303,106.89
240.65313,125.32
240.65323,104.74
240.65333,88.70
240.65343,78.10
240.65353,83.39
240.65363,99.37
240.65373,95.09
240.65383,98.30
240.65393,104.74
240.65403,87.63
240.65413,116.62
240.65423,78.10
240.65433,89.76
240.65443,64.44
240.65453,87.63
240.65463,114.45
240.65473,103.67
240.65483,104.74
240.65493,105.82
240.65503,78.10
240.65513,99.37
240.65523,99.37
240.65533,83.39
240.65543,89.76
240.65553,77.04
240.65563,71.78
240.65573,73.88
240.65583,64.44
240.65593,62.35
240.65603,61.30
240.65613,58.17
240.65623,64.44
240.65633,57.13
240.65643,67.58
240.65653,90.83
240.65663,73.88
240.65673,80.21
240.65683,70.73
240.65693,64.44
240.65703,78.10
240.65713,96.16
240.65723,143.98
240.65733,154.04
240.65743,194.04
240.65753,191.68
240.65763,116.62
240.65773,98.30
240.65783,86.57
240.65793,100.45
240.65803,109.05
240.65813,104.74
240.65823,85.51
240.65833,86.57
240.65843,84.45
240.65853,81.27
240.65863,59.21
240.65873,67.58
240.65883,65.48
240.65893,81.27
240.65903,90.83
240.65913,102.59
240.65923,73.88
240.65933,77.04
240.65943,107.97
240.65953,118.79
240.65963,215.22
240.65973,233.49
240.65983,277.41
240.65993,263.88
240.66003,212.86
240.66013,166.03
240.66023,164.21
240.66033,166.30
240.66043,97.23
240.66053,123.14
240.66063,143.98
240.66073,155.29
240.66083,162.68
240.66093,161.75
240.66103,160.73
240.66113,313.65
240.66123,495.43
240.66133,516.62
240.66143,426.42
240.66153,302.64
240.66163,199.48
240.66173,111.21
240.66183,97.23
240.66193,61.30
240.66203,90.83
240.66213,75.99
240.66223,81.27
240.66233,64.44
240.66243,62.35
240.66253,78.10
240.66263,188.82
240.66273,214.26
240.66283,278.80
240.66293,294.55
240.66303,270.44
240.66313,284.93
240.66323,298.32
240.66333,256.77
240.66343,172.72
240.66353,139.68
240.66363,98.30
240.66373,73.88
240.66383,63.39
240.66393,65.48
240.66403,80.21
240.66413,60.26
240.66423,47.79
240.66433,85.51
240.66443,115.54
240.66453,100.51
240.66463,115.54
240.66473,92.96
240.66483,79.16
240.66493,66.53
240.66503,63.98
240.66513,82.94
240.66523,124.34
240.66533,118.07
240.66543,99.37
240.66553,80.21
240.66563,70.73
240.66573,64.44
240.66583,85.51
240.66593,68.63
240.66603,67.58
240.66613,61.30
240.66623,65.48
240.66633,84.45
240.66643,94.03
240.66653,113.37
240.66663,112.29
240.66673,99.37
240.66683,75.99
240.66693,82.33
240.66703,132.97
240.66713,162.87
240.66723,169.65
240.66733,166.86
240.66743,91.89
240.66753,99.37
240.66763,86.57
240.66773,91.89
240.66783,104.74
240.66793,113.37
240.66803,137.36
240.66813,157.29
240.66823,155.85
240.66833,115.54
240.66843,129.69
240.66853,99.37
240.66863,161.75
240.66873,167.00
240.66883,189.86
240.66893,155.29
240.66903,136.27
240.66913,145.39
240.66923,101.52
240.66933,101.52
240.66943,71.78
240.66953,64.44
240.66963,57.13
240.66973,55.05
240.66983,72.83
240.66993,77.04
240.67003,102.59
240.67013,100.45
240.67023,78.10
240.67033,88.70
240.67043,75.99
240.67053,75.99
240.67063,49.86
240.67073,48.83
240.67083,67.58
240.67093,52.97
240.67103,69.68
240.67113,54.01
240.67123,71.78
240.67133,104.74
240.67143,235.04
240.67153,211.19
240.67163,286.75
240.67173,381.54
240.67183,376.24
240.67193,357.56
240.67203,250.36
240.67213,175.64
240.67223,113.37
240.67233,123.14
240.67243,116.62
240.67253,92.96
240.67263,94.03
240.67273,62.35
240.67283,57.13
240.67293,66.53
240.67303,68.63
240.67313,103.67
240.67323,114.45
240.67333,114.45
240.67343,118.79
240.67353,178.61
240.67363,276.71
240.67373,1698.03
240.67383,2785.49
240.67393,3370.27
240.67403,3067.22
240.67413,2252.70
240.67423,1499.39
240.67433,901.92
240.67443,528.60
240.67453,346.97
240.67463,225.97
240.67473,162.40
240.67483,140.24
240.67493,120.96
240.67503,172.97
240.67513,169.37
240.67523,196.14
240.67533,189.86
240.67543,154.87
240.67553,115.54
240.67563,116.62
240.67573,120.96
240.67583,114.45
240.67593,92.96
240.67603,84.45
240.67613,71.78
240.67623,68.63
240.67633,55.05
240.67643,62.35
240.67653,69.68
240.67663,96.16
240.67673,112.29
240.67683,117.70
240.67693,122.05
240.67703,100.45
240.67713,102.59
240.67723,90.83
240.67733,87.63
240.67743,64.44
240.67753,84.45
240.67763,82.33
240.67773,68.63
240.67783,82.33
240.67793,69.68
240.67803,57.13
240.67813,60.26
240.67823,63.39
240.67833,65.48
240.67843,59.21
240.67853,67.58
240.67863,73.88
240.67873,83.22
240.67883,89.22
240.67893,110.13
240.67903,115.14
240.67913,115.70
240.67923,106.36
240.67933,83.39
240.67943,72.83
240.67953,71.78
240.67963,203.69
240.67973,210.91
240.67983,740.77
240.67993,3067.36
240.68003,5385.30
240.68013,6069.48
240.68023,5113.05
240.68033,3350.76
240.68043,1949.23
240.68053,1078.12
240.68063,648.77
240.68073,393.39
240.68083,280.89
240.68093,203.25
240.68103,151.25
240.68113,71.78
240.68123,89.76
240.68133,87.63
240.68143,87.63
240.68153,67.58
240.68163,63.39
240.68173,84.45
240.68183,60.26
240.68193,72.83
240.68203,85.51
240.68213,69.68
240.68223,65.48
240.68233,52.97
240.68243,59.21
240.68253,56.09
240.68263,69.68
240.68273,72.83
240.68283,59.21
240.68293,55.05
240.68303,67.58
240.68313,70.73
240.68323,59.21
240.68333,54.01
240.68343,61.30
240.68353,69.68
240.68363,64.44
240.68373,104.74
240.68383,192.24
240.68393,187.07
240.68403,183.03
240.68413,159.19
240.68423,92.96
240.68433,78.10
240.68443,262.26
240.68453,319.92
240.68463,453.19
240.68473,492.78
240.68483,424.61
240.68493,328.01
240.68503,222.76
240.68513,162.54
240.68523,165.75
240.68533,143.58
240.68543,156.13
240.68553,159.89
240.68563,158.78
240.68573,189.17
240.68583,163.79
240.68593,139.82
240.68603,80.21
240.68613,87.63
240.68623,77.04
240.68633,114.45
240.68643,113.37
240.68653,113.37
240.68663,120.96
240.68673,104.74
240.68683,139.56
240.68693,150.97
240.68703,155.06
240.68713,129.69
240.68723,127.50
240.68733,102.59
240.68743,102.59
240.68753,88.70
240.68763,78.10
240.68773,68.63
240.68783,49.86
240.68793,49.86
240.68803,69.68
240.68813,106.89
240.68823,167.35
240.68833,173.69
240.68843,169.79
240.68853,113.37
240.68863,89.76
240.68873,107.97
240.68883,177.48
240.68893,198.92
240.68903,222.48
240.68913,196.97
240.68923,153.06
240.68933,95.09
240.68943,84.45
240.68953,71.78
240.68963,81.27
240.68973,75.99
240.68983,115.54
240.68993,90.83
240.69003,92.96
240.69013,67.58
240.69023,49.86
240.69033,51.94
240.69043,61.30
240.69053,81.27
240.69063,85.51
240.69073,128.59
240.69083,109.05
240.69093,107.97
240.69103,100.45
240.69113,84.45
240.69123,129.69
240.69133,335.54
240.69143,2474.91
240.69153,3964.40
240.69163,4418.84
240.69173,3541.46
240.69183,2256.89
240.69193,1322.49
240.69203,726.55
240.69213,381.68
240.69223,239.49
240.69233,197.53
240.69243,211.33
240.69253,216.07
240.69263,193.35
240.69273,138.15
240.69283,103.67
240.69293,110.68
240.69303,132.57
240.69313,122.25
240.69323,138.28
240.69333,170.76
240.69343,175.78
240.69353,135.78
240.69363,107.48
240.69373,93.12
240.69383,70.54
240.69393,145.12
240.69403,240.19
240.69413,263.88
240.69423,252.04
240.69433,252.04
240.69443,245.48
240.69453,221.92
240.69463,177.04
240.69473,142.47
240.69483,116.68
240.69493,83.64
240.69503,77.37
240.69513,61.34
240.69523,55.48
240.69533,59.66
240.69543,80.71
240.69553,100.79
240.69563,112.08
240.69573,107.34
240.69583,120.58
240.69593,83.22
240.69603,86.01
240.69613,59.11
240.69623,56.04
240.69633,47.40
240.69643,63.98
240.69653,66.49
240.69663,240.19
240.69673,634.41
240.69683,839.19
240.69693,879.61
240.69703,700.76
240.69713,451.24
240.69723,278.10
240.69733,205.06
240.69743,158.92
240.69753,99.25
240.69763,71.51
240.69773,73.32
240.69783,74.16
240.69793,86.01
240.69803,84.34
240.69813,92.28
240.69823,92.14
240.69833,70.54
240.69843,77.92
240.69853,74.58
240.69863,54.64
240.69873,56.88
240.69883,58.41
240.69893,80.57
240.69903,80.71
240.69913,96.88
240.69923,174.39
240.69933,207.29
240.69943,183.03
240.69953,156.82
240.69963,139.82
240.69973,102.46
240.69983,146.37
240.69993,218.44
240.70003,197.39
240.70013,190.00
240.70023,243.11
240.70033,734.08
240.70043,1039.51
240.70053,1078.40
240.70063,860.24
240.70073,542.68
240.70083,346.41
240.70093,236.14
240.70103,182.61
240.70113,132.15
240.70123,95.77
240.70133,87.82
240.70143,66.63
240.70153,59.52
240.70163,62.87
240.70173,80.57
240.70183,91.86
240.70193,106.08
240.70203,129.50
240.70213,118.35
240.70223,83.08
240.70233,87.68
240.70243,93.96
240.70253,92.14
240.70263,86.57
240.70273,86.29
240.70283,92.70
240.70293,69.98
240.70303,79.18
240.70313,102.04
240.70323,113.61
240.70333,169.51
240.70343,190.84
240.70353,193.49
240.70363,148.46
240.70373,105.11
240.70383,84.89
240.70393,87.40
240.70403,83.08
240.70413,62.31
240.70423,57.85
240.70433,58.41
240.70443,109.43
240.70453,116.82
240.70463,94.10
240.70473,87.54
240.70483,130.90
240.70493,248.27
240.70503,336.65
240.70513,308.07
240.70523,250.64
240.70533,181.78
240.70543,159.61
240.70553,140.65
240.70563,159.75
240.70573,173.13
240.70583,163.38
240.70593,150.97
240.70603,122.67
240.70613,108.31
240.70623,120.02
240.70633,94.37
240.70643,80.15
240.70653,89.36
240.70663,80.57
240.70673,67.33
240.70683,74.02
240.70693,76.39
240.70703,81.55
240.70713,57.71
240.70723,70.68
240.70733,60.26
240.70743,61.30
240.70753,63.39
240.70763,88.70
240.70773,55.05
240.70783,64.44
240.70793,57.13
240.70803,75.99
240.70813,73.88
240.70823,66.53
240.70833,86.57
240.70843,56.09
240.70853,61.30
240.70863,70.73
240.70873,114.45
240.70883,89.76
240.70893,120.96
240.70903,122.05
240.70913,134.07
240.70923,131.88
240.70933,119.88
240.70943,113.37
240.70953,143.98
240.70963,162.12
240.70973,193.49
240.70983,221.51
240.70993,223.04
240.71003,176.62
240.71013,117.70
240.71023,96.16
240.71033,78.10
240.71043,122.05
240.71053,156.96
240.71063,218.86
240.71073,254.13
240.71083,277.41
240.71093,230.29
240.71103,212.86
240.71113,189.44
240.71123,154.46
240.71133,81.27
240.71143,84.45
240.71153,80.21
240.71163,73.88
240.71173,62.35
240.71183,63.39
240.71193,78.10
240.71203,71.78
240.71213,72.83
240.71223,73.88
240.71233,55.05
240.71243,116.62
240.71253,143.30
240.71263,195.58
240.71273,221.51
240.71283,205.20
240.71293,162.54
240.71303,149.02
240.71313,122.05
240.71323,141.77
240.71333,148.40
240.71343,151.39
240.71353,181.22
240.71363,114.45
240.71373,112.29
240.71383,134.07
240.71393,106.89
240.71403,94.03
240.71413,109.05
240.71423,134.07
240.71433,165.11
240.71443,156.82
240.71453,221.09
240.71463,233.36
240.71473,222.76
240.71483,194.32
240.71493,151.25
240.71503,102.59
240.71513,77.04
240.71523,84.45
240.71533,78.10
240.71543,85.51
240.71553,114.45
240.71563,107.97
240.71573,145.08
240.71583,150.62
240.71593,154.87
240.71603,158.22
240.71613,139.40
240.71623,129.69
240.71633,111.21
240.71643,106.89
240.71653,86.57
240.71663,75.99
240.71673,71.78
240.71683,55.05
240.71693,60.26
240.71703,52.97
240.71713,73.88
240.71723,51.94
240.71733,61.30
240.71743,63.39
240.71753,58.17
240.71763,64.44
240.71773,73.88
240.71783,73.88
240.71793,52.97
240.71803,75.99
240.71813,73.88
240.71823,66.53
240.71833,69.68
240.71843,68.63
240.71853,66.53
240.71863,59.21
240.71873,86.57
240.71883,80.21
240.71893,91.89
240.71903,79.16
240.71913,72.83
240.71923,92.96
240.71933,61.30
240.71943,98.30
240.71953,120.96
240.71963,122.05
240.71973,300.95
240.71983,305.43
240.71993,395.76
240.72003,400.36
240.72013,360.49
240.72023,1133.18
240.72033,3187.10
240.72043,4452.44
240.72053,4505.69
240.72063,3380.45
240.72073,2114.56
240.72083,1207.76
240.72093,711.08
240.72103,426.98
240.72113,271.13
240.72123,187.07
240.72133,156.17
240.72143,155.57
240.72153,159.06
240.72163,149.58
240.72173,105.82
240.72183,100.45
240.72193,69.68
240.72203,67.58
240.72213,61.30
240.72223,59.21
240.72233,77.04
240.72243,72.83
240.72253,107.97
240.72263,92.96
240.72273,98.30
240.72283,105.82
240.72293,91.89
240.72303,140.67
240.72313,140.24
240.72323,129.69
240.72333,109.05
240.72343,111.21
240.72353,80.21
240.72363,78.10
240.72373,70.73
240.72383,75.99
240.72393,63.39
240.72403,49.86
240.72413,80.21
240.72423,46.76
240.72433,49.86
240.72443,52.97
240.72453,62.35
240.72463,63.39
240.72473,71.78
240.72483,67.58
240.72493,83.39
240.72503,75.99
240.72513,97.23
240.72523,80.21
240.72533,460.49
240.72543,592.31
240.72553,989.88
240.72563,1095.27
240.72573,941.09
240.72583,791.79
240.72593,663.68
240.72603,511.60
240.72613,392.13
240.72623,273.36
240.72633,183.73
240.72643,128.59
240.72653,77.04
240.72663,100.45
240.72673,142.87
240.72683,183.14
240.72693,180.66
240.72703,199.62
240.72713,153.62
240.72723,111.21
240.72733,83.39
240.72743,92.96
240.72753,86.57
240.72763,79.16
240.72773,91.89
240.72783,95.09
240.72793,78.10
240.72803,57.13
240.72813,66.53
240.72823,57.13
240.72833,60.26
240.72843,54.01
240.72853,56.09
240.72863,85.51
240.72873,86.57
240.72883,92.96
240.72893,71.78
240.72903,87.63
240.72913,99.37
240.72923,128.59
240.72933,122.05
240.72943,129.69
240.72953,78.10
240.72963,102.59
240.72973,97.23
240.72983,79.16
240.72993,72.83
240.73003,70.73
240.73013,74.93
240.73023,49.86
240.73033,40.57
240.73043,36.46
240.73053,50.90
240.73063,43.66
240.73073,57.13
240.73083,395.54
240.73093,1625.68
240.73103,9079.26
240.73113,13600.28
240.73123,13851.90
240.73133,10301.24
240.73143,6137.50
240.73153,3337.10
240.73163,1780.14
240.73173,945.41
240.73183,546.73
240.73193,321.60
240.73203,208.82
240.73213,140.38
240.73223,106.89
240.73233,122.05
240.73243,105.82
240.73253,111.21
240.73263,82.33
240.73273,91.89
240.73283,109.05
240.73293,107.97
240.73303,100.45
240.73313,96.16
240.73323,96.16
240.73333,78.10
240.73343,83.39
240.73353,78.10
240.73363,92.96
240.73373,95.77
240.73383,91.17
240.73393,81.83
240.73403,104.27
240.73413,105.94
240.73423,67.58
240.73433,81.27
240.73443,85.73
240.73453,149.51
240.73463,148.74
240.73473,157.10
240.73483,175.09
240.73493,206.73
240.73503,188.75
240.73513,159.33
240.73523,144.42
240.73533,117.70
240.73543,90.83
240.73553,78.10
240.73563,61.30
240.73573,60.26
240.73583,57.13
240.73593,80.21
240.73603,65.48
240.73613,62.35
240.73623,72.83
240.73633,63.39
240.73643,58.17
240.73653,81.27
240.73663,74.93
240.73673,87.63
240.73683,73.88
240.73693,81.27
240.73703,111.21
240.73713,171.85
240.73723,193.91
240.73733,350.17
240.73743,432.14
240.73753,503.93
240.73763,366.06
240.73773,245.07
240.73783,160.59
240.73793,83.39
240.73803,59.21
240.73813,63.39
240.73823,60.26
240.73833,58.17
240.73843,68.63
240.73853,78.10
240.73863,62.35
240.73873,74.93
240.73883,90.83
240.73893,78.10
240.73903,86.57
240.73913,122.05
240.73923,81.27
240.73933,89.76
240.73943,77.04
240.73953,69.68
240.73963,68.63
240.73973,62.35
240.73983,71.78
240.73993,67.58
240.74003,61.30
240.74013,77.04
240.74023,61.30
240.74033,63.39
240.74043,78.10
240.74053,71.78
240.74063,74.93
240.74073,92.96
240.74083,82.33
240.74093,75.99
240.74103,75.99
240.74113,107.97
240.74123,123.14
240.74133,112.29
240.74143,113.37
240.74153,100.45
240.74163,102.59
240.74173,95.09
240.74183,119.88
240.74193,140.67
240.74203,134.07
240.74213,143.72
240.74223,125.32
240.74233,115.54
240.74243,104.74
240.74253,99.37
240.74263,78.10
240.74273,88.70
240.74283,67.58
240.74293,83.39
240.74303,82.33
240.74313,71.78
240.74323,95.09
240.74333,104.74
240.74343,159.52
240.74353,148.74
240.74363,149.16
240.74373,147.49
240.74383,110.13
240.74393,97.23
240.74403,152.84
240.74413,147.90
240.74423,155.06
240.74433,148.04
240.74443,152.64
240.74453,145.08
240.74463,127.50
240.74473,140.67
240.74483,119.88
240.74493,148.40
240.74503,140.24
240.74513,151.39
240.74523,141.35
240.74533,132.97
240.74543,131.88
240.74553,112.29
240.74563,86.57
240.74573,82.33
240.74583,86.57
240.74593,77.04
240.74603,75.99
240.74613,77.04
240.74623,73.88
240.74633,134.07
240.74643,169.60
240.74653,179.97
240.74663,174.95
240.74673,146.65
240.74683,141.77
240.74693,143.30
240.74703,145.95
240.74713,114.45
240.74723,91.89
240.74733,97.23
240.74743,104.74
240.74753,94.03
240.74763,81.27
240.74773,90.83
240.74783,96.60
240.74793,78.10
240.74803,90.61
240.74813,149.51
240.74823,146.65
240.74833,144.14
240.74843,116.12
240.74853,127.83
240.74863,129.78
240.74873,151.73
240.74883,145.25
240.74893,132.97
240.74903,100.45
240.74913,71.78
240.74923,91.89
240.74933,68.63
240.74943,67.58
240.74953,61.30
240.74963,69.68
240.74973,62.35
240.74983,64.44
240.74993,67.58
240.75003,80.21
240.75013,97.23
240.75023,68.63
240.75033,75.99
240.75043,72.83
240.75053,66.53
240.75063,75.99
240.75073,87.63
240.75083,106.89
240.75093,92.96
240.75103,68.63
240.75113,60.26
240.75123,70.73
240.75133,69.68
240.75143,61.30
240.75153,72.83
240.75163,88.70
240.75173,78.10
240.75183,81.27
240.75193,72.83
240.75203,94.03
240.75213,85.51
240.75223,107.97
240.75233,130.78
240.75243,128.59
240.75253,109.05
240.75263,91.89
240.75273,71.78
240.75283,74.93
240.75293,86.57
240.75303,97.23
240.75313,100.45
240.75323,90.83
240.75333,141.77
240.75343,178.61
240.75353,161.56
240.75363,171.18
240.75373,161.01
240.75383,143.30
240.75393,138.46
240.75403,163.99
240.75413,159.75
240.75423,115.54
240.75433,114.45
240.75443,80.21
240.75453,78.10
240.75463,128.59
240.75473,129.69
240.75483,140.67
240.75493,137.36
240.75503,140.10
240.75513,159.52
240.75523,150.69
240.75533,141.77
240.75543,148.18
240.75553,166.72
240.75563,161.01
240.75573,146.37
240.75583,94.03
240.75593,81.27
240.75603,88.70
240.75613,98.30
240.75623,118.79
240.75633,139.56
240.75643,119.88
240.75653,126.41
240.75663,144.00
240.75673,168.67
240.75683,163.10
240.75693,131.88
240.75703,150.62
240.75713,152.92
240.75723,201.85
240.75733,222.34
240.75743,207.15
240.75753,201.71
240.75763,182.20
240.75773,154.18
240.75783,106.89
240.75793,72.83
240.75803,74.93
240.75813,81.27
240.75823,126.41
240.75833,127.50
240.75843,130.78
240.75853,123.14
240.75863,120.96
240.75873,126.41
240.75883,105.82
240.75893,152.84
240.75903,129.69
240.75913,97.23
240.75923,99.37
240.75933,106.89
240.75943,71.78
240.75953,74.93
240.75963,68.63
240.75973,78.10
240.75983,92.96
240.75993,107.97
240.76003,153.95
240.76013,141.35
240.76023,142.61
240.76033,95.09
240.76043,105.82
240.76053,80.21
240.76063,87.63
240.76073,83.39
240.76083,74.93
240.76093,105.82
240.76103,151.73
240.76113,159.89
240.76123,186.80
240.76133,179.41
240.76143,153.06
240.76153,166.72
240.76163,162.82
240.76173,104.74
240.76183,107.48
240.76193,95.09
240.76203,89.76
240.76213,79.16
240.76223,85.03
240.76233,89.36
240.76243,94.37
240.76253,99.25
240.76263,123.23
240.76273,83.39
240.76283,65.48
240.76293,65.48
240.76303,64.44
240.76313,62.35
240.76323,246.81
240.76333,271.41
240.76343,367.46
240.76353,422.24
240.76363,371.22
240.76373,263.47
240.76383,198.92
240.76393,170.49
240.76403,94.03
240.76413,69.68
240.76423,59.21
240.76433,60.26
240.76443,51.94
240.76453,57.13
240.76463,56.09
240.76473,62.35
240.76483,134.07
240.76493,156.17
240.76503,159.19
240.76513,143.98
240.76523,147.90
240.76533,141.49
240.76543,112.29
240.76553,149.51
240.76563,144.14
240.76573,140.24
240.76583,84.45
240.76593,98.30
240.76603,75.99
240.76613,78.10
240.76623,90.83
240.76633,56.09
240.76643,67.58
240.76653,57.13
240.76663,50.90
240.76673,43.66
240.76683,55.05
240.76693,46.76
240.76703,41.60
240.76713,48.83
240.76723,57.13
240.76733,71.78
240.76743,46.76
240.76753,61.30
240.76763,71.78
240.76773,59.21
240.76783,66.53
240.76793,58.17
240.76803,71.78
240.76813,58.17
240.76823,54.01
240.76833,82.33
240.76843,90.83
240.76853,147.29
240.76863,138.46
240.76873,151.53
240.76883,323.97
240.76893,512.99
240.76903,482.60
240.76913,421.27
240.76923,319.09
240.76933,223.60
240.76943,165.33
240.76953,149.51
240.76963,152.50
240.76973,195.44
240.76983,182.20
240.76993,166.72
240.77003,99.37
240.77013,89.76
240.77023,78.10
240.77033,77.04
240.77043,57.13
240.77053,67.58
240.77063,79.16
240.77073,55.05
240.77083,66.53
240.77093,80.21
240.77103,238.10
240.77113,1526.99
240.77123,1993.42
240.77133,2024.65
240.77143,1539.53
240.77153,956.98
240.77163,527.07
240.77173,333.72
240.77183,204.92
240.77193,89.76
240.77203,90.83
240.77213,71.78
240.77223,68.63
240.77233,77.04
240.77243,85.51
240.77253,81.27
240.77263,80.21
240.77273,85.51
240.77283,62.35
240.77293,70.73
240.77303,61.30
240.77313,82.33
240.77323,160.64
240.77333,175.09
240.77343,171.88
240.77353,168.53
240.77363,151.53
240.77373,143.44
240.77383,98.30
240.77393,105.82
240.77403,167.35
240.77413,149.02
240.77423,162.68
240.77433,150.69
240.77443,99.37
240.77453,87.63
240.77463,115.54
240.77473,110.13
240.77483,114.45
240.77493,99.37
240.77503,98.30
240.77513,81.27
240.77523,59.21
240.77533,62.35
240.77543,71.78
240.77553,54.01
240.77563,52.97
240.77573,31.34
240.77583,73.88
240.77593,61.48
240.77603,57.29
240.77613,63.39
240.77623,67.61
240.77633,86.15
240.77643,82.39
240.77653,67.47
240.77663,52.97
240.77673,65.48
240.77683,110.13
240.77693,143.98
240.77703,143.72
240.77713,147.21
240.77723,106.89
240.77733,103.67
240.77743,105.82
240.77753,91.89
240.77763,75.99
240.77773,70.73
240.77783,63.39
240.77793,64.44
240.77803,74.93
240.77813,90.83
240.77823,71.78
240.77833,70.73
240.77843,88.70
240.77853,81.27
240.77863,56.09
240.77873,74.93
240.77883,89.76
240.77893,66.53
240.77903,99.37
240.77913,103.67
240.77923,99.37
240.77933,112.29
240.77943,103.67
240.77953,103.67
240.77963,115.54
240.77973,90.83
240.77983,96.16
240.77993,85.51
240.78003,96.16
240.78013,85.51
240.78023,51.94
240.78033,59.21
240.78043,61.30
240.78053,61.30
240.78063,115.54
240.78073,154.32
240.78083,293.44
240.78093,349.34
240.78103,313.09
240.78113,280.75
240.78123,232.38
240.78133,205.20
240.78143,162.54
240.78153,187.49
240.78163,213.84
240.78173,210.08
240.78183,181.22
240.78193,103.67
240.78203,107.97
240.78213,91.89
240.78223,157.29
240.78233,163.66
240.78243,166.16
240.78253,168.53
240.78263,118.79
240.78273,101.52
240.78283,91.89
240.78293,82.33
240.78303,87.63
240.78313,80.21
240.78323,88.70
240.78333,86.57
240.78343,99.37
240.78353,104.74
240.78363,61.30
240.78373,79.16
240.78383,79.16
240.78393,63.39
240.78403,63.39
240.78413,73.88
240.78423,66.53
240.78433,72.83
240.78443,60.26
240.78453,63.39
240.78463,71.78
240.78473,326.87
240.78483,407.19
240.78493,744.95
240.78503,892.72
240.78513,783.85
240.78523,602.21
240.78533,412.76
240.78543,297.34
240.78553,232.52
240.78563,179.97
240.78573,165.47
240.78583,143.58
240.78593,86.57
240.78603,77.04
240.78613,85.51
240.78623,80.21
240.78633,83.39
240.78643,118.79
240.78653,134.07
240.78663,148.40
240.78673,147.90
240.78683,109.05
240.78693,132.97
240.78703,122.05
240.78713,100.45
240.78723,99.37
240.78733,88.70
240.78743,69.68
240.78753,73.88
240.78763,68.63
240.78773,58.17
240.78783,61.30
240.78793,80.21
240.78803,62.35
240.78813,78.10
240.78823,71.78
240.78833,85.51
240.78843,103.67
240.78853,114.45
240.78863,105.82
240.78873,100.45
240.78883,148.40
240.78893,142.87
240.78903,112.29
240.78913,85.51
240.78923,88.70
240.78933,107.97
240.78943,128.59
240.78953,189.96
240.78963,213.28
240.78973,268.21
240.78983,291.35
240.78993,220.11
240.79003,155.15
240.79013,223.74
240.79023,590.78
240.79033,767.26
240.79043,856.19
240.79053,689.75
240.79063,536.13
240.79073,397.57
240.79083,348.36
240.79093,227.78
240.79103,213.00
240.79113,183.31
240.79123,158.22
240.79133,136.05
240.79143,113.33
240.79153,80.85
240.79163,88.66
240.79173,100.65
240.79183,94.93
240.79193,103.85
240.79203,83.78
240.79213,62.59
240.79223,66.08
240.79233,69.98
240.79243,67.33
240.79253,57.57
240.79263,77.09
240.79273,124.07
240.79283,134.94
240.79293,124.34
240.79303,121.84
240.79313,110.40
240.79323,111.24
240.79333,97.30
240.79343,90.89
240.79353,59.11
240.79363,62.03
240.79373,81.69
240.79383,75.97
240.79393,66.77
240.79403,56.18
240.79413,73.18
240.79423,132.43
240.79433,134.24
240.79443,123.79
240.79453,104.83
240.79463,83.64
240.79473,80.43
240.79483,83.08
240.79493,83.36
240.79503,80.99
240.79513,95.49
240.79523,119.88
240.79533,117.65
240.79543,114.31
240.79553,112.22
240.79563,130.90
240.79573,120.30
240.79583,90.61
240.79593,85.45
240.79603,87.82
240.79613,68.17
240.79623,77.79
240.79633,66.49
240.79643,68.31
240.79653,57.57
240.79663,60.36
240.79673,58.83
240.79683,68.58
240.79693,57.15
240.79703,55.34
240.79713,56.74
240.79723,73.60
240.79733,69.70
240.79743,56.46
240.79753,59.11
240.79763,54.23
240.79773,64.12
240.79783,75.83
240.79793,69.56
240.79803,55.62
240.79813,42.66
240.79823,51.72
240.79833,67.61
240.79843,97.02
240.79853,99.67
240.79863,92.42
240.79873,86.85
240.79883,65.80
240.79893,59.94
240.79903,63.98
240.79913,80.85
240.79923,90.89
240.79933,108.87
240.79943,340.14
240.79953,679.30
240.79963,740.07
240.79973,699.93
240.79983,548.82
240.79993,369.83
240.80003,268.48
240.80013,177.87
240.80023,154.18
240.80033,136.19
240.80043,111.94
240.80053,86.85
240.80063,75.83
240.80073,70.12
240.80083,83.36
240.80093,94.79
240.80103,67.89
240.80113,93.12
240.80123,129.50
240.80133,166.16
240.80143,220.95
240.80153,288.00
240.80163,328.43
240.80173,268.76
240.80183,216.63
240.80193,149.44
240.80203,115.98
240.80213,171.60
240.80223,321.60
240.80233,392.55
240.80243,315.04
240.80253,226.80
240.80263,150.83
240.80273,101.48
240.80283,79.04
240.80293,72.91
240.80303,60.92
240.80313,59.94
240.80323,77.51
240.80333,93.54
240.80343,76.67
240.80353,63.98
240.80363,48.93
240.80373,67.61
240.80383,87.96
240.80393,88.10
240.80403,156.17
240.80413,150.62
240.80423,165.05
240.80433,472.29
240.80443,630.65
240.80453,653.93
240.80463,592.87
240.80473,400.77
240.80483,261.79
240.80493,185.40
240.80503,114.45
240.80513,126.41
240.80523,125.32
240.80533,115.54
240.80543,155.06
240.80553,156.41
240.80563,153.06
240.80573,140.65
240.80583,150.55
240.80593,137.36
240.80603,106.89
240.80613,183.14
240.80623,197.67
240.80633,244.65
240.80643,221.65
240.80653,178.99
240.80663,90.83
240.80673,85.51
240.80683,70.73
240.80693,83.39
240.80703,132.97
240.80713,128.59
240.80723,142.87
240.80733,141.21
240.80743,110.13
240.80753,157.29
240.80763,247.85
240.80773,720.28
240.80783,863.86
240.80793,796.95
240.80803,617.12
240.80813,438.83
240.80823,272.67
240.80833,175.78
240.80843,125.32
240.80853,83.39
240.80863,69.68
240.80873,68.63
240.80883,90.83
240.80893,114.45
240.80903,104.74
240.80913,84.45
240.80923,95.09
240.80933,71.78
240.80943,56.09
240.80953,78.10
240.80963,67.58
240.80973,88.70
240.80983,84.45
240.80993,66.53
240.81003,73.88
240.81013,73.88
240.81023,91.89
240.81033,98.30
240.81043,153.95
240.81053,144.42
240.81063,153.76
240.81073,136.27
240.81083,118.79
240.81093,94.03
240.81103,85.51
240.81113,79.16
240.81123,151.73
240.81133,154.32
240.81143,187.49
240.81153,201.99
240.81163,151.25
240.81173,81.27
240.81183,75.99
240.81193,83.39
240.81203,92.96
240.81213,107.97
240.81223,218.70
240.81233,228.48
240.81243,262.35
240.81253,230.71
240.81263,187.07
240.81273,146.23
240.81283,130.78
240.81293,98.30
240.81303,88.70
240.81313,104.74
240.81323,127.50
240.81333,101.52
240.81343,81.27
240.81353,73.88
240.81363,55.05
240.81373,54.01
240.81383,141.77
240.81393,194.74
240.81403,494.31
240.81413,639.71
240.81423,667.73
240.81433,489.85
240.81443,331.63
240.81453,219.00
240.81463,112.29
240.81473,107.97
240.81483,74.93
240.81493,54.01
240.81503,57.13
240.81513,46.76
240.81523,54.01
240.81533,83.39
240.81543,90.83
240.81553,95.09
240.81563,104.74
240.81573,111.21
240.81583,73.88
240.81593,69.68
240.81603,59.21
240.81613,43.66
240.81623,45.73
240.81633,44.70
240.81643,58.17
240.81653,67.58
240.81663,58.17
240.81673,75.99
240.81683,86.57
240.81693,93.96
240.81703,93.68
240.81713,78.06
240.81723,52.97
240.81733,56.46
240.81743,68.03
240.81753,56.60
240.81763,68.63
240.81773,59.21
240.81783,64.44
240.81793,55.05
240.81803,48.83
240.81813,63.39
240.81823,68.63
240.81833,91.89
240.81843,75.99
240.81853,66.53
240.81863,65.48
240.81873,54.01
240.81883,56.09
240.81893,50.90
240.81903,56.09
240.81913,73.88
240.81923,152.84
240.81933,163.99
240.81943,166.30
240.81953,169.79
240.81963,137.36
240.81973,97.23
240.81983,115.54
240.81993,97.23
240.82003,136.27
240.82013,146.19
240.82023,118.79
240.82033,103.67
240.82043,98.30
240.82053,147.29
240.82063,145.67
240.82073,199.34
240.82083,197.11
240.82093,183.03
240.82103,141.35
240.82113,135.17
240.82123,134.07
240.82133,167.35
240.82143,160.73
240.82153,145.81
240.82163,153.20
240.82173,144.14
240.82183,184.27
240.82193,186.10
240.82203,253.15
240.82213,302.22
240.82223,318.11
240.82233,304.59
240.82243,300.27
240.82253,250.64
240.82263,211.47
240.82273,170.76
240.82283,210.08
240.82293,203.94
240.82303,187.77
240.82313,212.31
240.82323,213.84
240.82333,210.08
240.82343,195.72
240.82353,167.28
240.82363,110.13
240.82373,92.96
240.82383,98.30
240.82393,84.45
240.82403,103.67
240.82413,85.51
240.82423,61.30
240.82433,92.96
240.82443,828.92
240.82453,1120.92
240.82463,1529.64
240.82473,1631.12
240.82483,1242.05
240.82493,812.14
240.82503,547.56
240.82513,328.57
240.82523,237.12
240.82533,209.38
240.82543,252.04
240.82553,251.06
240.82563,223.32
240.82573,181.22
240.82583,148.40
240.82593,165.47
240.82603,184.71
240.82613,153.20
240.82623,103.67
240.82633,124.23
240.82643,155.85
240.82653,190.14
240.82663,178.15
240.82673,188.61
240.82683,150.69
240.82693,113.37
240.82703,77.04
240.82713,83.39
240.82723,132.97
240.82733,159.61
240.82743,441.34
240.82753,6757.00
240.82763,14648.99
240.82773,17345.68
240.82783,14465.40
240.82793,9158.58
240.82803,5076.53
240.82813,2651.67
240.82823,1412.68
240.82833,792.21
240.82843,466.15
240.82853,279.92
240.82863,163.52
240.82873,118.79
240.82883,83.39
240.82893,106.89
240.82903,90.83
240.82913,80.21
240.82923,78.10
240.82933,72.83
240.82943,81.27
240.82953,77.04
240.82963,65.48
240.82973,70.73
240.82983,74.93
240.82993,85.51
240.83003,109.05
240.83013,102.59
240.83023,101.52
240.83033,85.51
240.83043,89.76
240.83053,66.53
240.83063,61.30
240.83073,219.86
240.83083,261.79
240.83093,362.44
240.83103,409.98
240.83113,385.86
240.83123,294.27
240.83133,207.15
240.83143,160.73
240.83153,135.64
240.83163,79.16
240.83173,87.54
240.83183,108.31
240.83193,105.80
240.83203,193.91
240.83213,339.44
240.83223,363.56
240.83233,360.63
240.83243,276.29
240.83253,184.98
240.83263,123.37
240.83273,92.84
240.83283,62.73
240.83293,79.74
240.83303,87.54
240.83313,84.20
240.83323,78.48
240.83333,55.48
240.83343,51.72
240.83353,78.76
240.83363,1073.66
240.83373,2534.99
240.83383,2955.56
240.83393,2646.79
240.83403,1711.83
240.83413,987.09
240.83423,558.58
240.83433,359.65
240.83443,282.29
240.83453,253.15
240.83463,207.57
240.83473,159.06
240.83483,144.14
240.83493,171.88
240.83503,171.88
240.83513,113.61
240.83523,97.86
240.83533,91.73
240.83543,93.26
240.83553,126.99
240.83563,200.46
240.83573,241.86
240.83583,274.62
240.83593,273.50
240.83603,232.66
240.83613,164.07
240.83623,106.64
240.83633,89.22
240.83643,92.70
240.83653,76.95
240.83663,67.75
240.83673,72.07
240.83683,86.71
240.83693,113.75
240.83703,131.45
240.83713,116.54
240.83723,80.57
240.83733,84.48
240.83743,73.46
240.83753,85.59
240.83763,105.67
240.83773,118.35
240.83783,121.00
240.83793,138.28
240.83803,142.61
240.83813,131.18
240.83823,133.41
240.83833,123.09
240.83843,103.16
240.83853,94.93
240.83863,61.20
240.83873,46.98
240.83883,69.28
240.83893,122.39
240.83903,153.76
240.83913,154.18
240.83923,138.42
240.83933,110.40
240.83943,136.75
240.83953,140.24
240.83963,147.90
240.83973,122.11
240.83983,142.05
240.83993,121.70
240.84003,127.69
240.84013,117.37
240.84023,94.65
240.84033,81.83
240.84043,97.30
240.84053,90.05
240.84063,81.83
240.84073,76.39
240.84083,92.14
240.84093,103.02
240.84103,114.45
240.84113,119.47
240.84123,108.45
240.84133,88.10
240.84143,88.66
240.84153,88.38
240.84163,95.21
240.84173,103.30
240.84183,108.87
240.84193,108.87
240.84203,123.23
240.84213,131.73
240.84223,152.78
240.84233,177.32
240.84243,176.76
240.84253,172.58
240.84263,115.00
240.84273,81.69
240.84283,69.42
240.84293,76.81
240.84303,76.81
240.84313,64.12
240.84323,63.01
240.84333,98.42
240.84343,132.43
240.84353,130.48
240.84363,142.19
240.84373,101.62
240.84383,122.53
240.84393,141.49
240.84403,127.97
240.84413,111.94
240.84423,130.20
240.84433,125.32
240.84443,124.07
240.84453,129.22
240.84463,111.38
240.84473,79.74
240.84483,94.23
240.84493,91.03
240.84503,71.23
240.84513,74.72
240.84523,56.46
240.84533,50.60
240.84543,65.38
240.84553,82.80
240.84563,74.93
240.84573,79.16
240.84583,66.53
240.84593,90.83
240.84603,119.88
240.84613,160.64
240.84623,144.84
240.84633,101.52
240.84643,159.52
240.84653,205.62
240.84663,612.94
240.84673,854.24
240.84683,917.81
240.84693,909.17
240.84703,800.02
240.84713,716.93
240.84723,496.54
240.84733,378.61
240.84743,256.77
240.84753,167.28
240.84763,151.53
240.84773,116.62
240.84783,134.07
240.84793,82.33
240.84803,78.10
240.84813,62.35
240.84823,57.13
240.84833,71.78
240.84843,66.53
240.84853,49.86
240.84863,69.68
240.84873,79.16
240.84883,86.57
240.84893,91.89
240.84903,77.04
240.84913,96.16
240.84923,85.51
240.84933,85.51
240.84943,61.30
240.84953,58.17
240.84963,60.26
240.84973,89.76
240.84983,95.09
240.84993,110.13
240.85003,95.09
240.85013,77.04
240.85023,43.66
240.85033,46.76
240.85043,45.73
240.85053,50.90
240.85063,57.13
240.85073,70.73
240.85083,61.30
240.85093,84.45
240.85103,81.27
240.85113,75.99
240.85123,84.45
240.85133,91.89
240.85143,83.39
240.85153,84.45
240.85163,84.45
240.85173,91.89
240.85183,77.04
240.85193,89.76
240.85203,66.53
240.85213,88.70
240.85223,65.48
240.85233,75.99
240.85243,80.21
240.85253,73.88
240.85263,110.13
240.85273,119.88
240.85283,80.21
240.85293,80.21
240.85303,87.63
240.85313,75.99
240.85323,83.39
240.85333,72.83
240.85343,82.33
240.85353,84.45
240.85363,72.83
240.85373,71.78
240.85383,188.82
240.85393,341.39
240.85403,1210.27
240.85413,1557.38
240.85423,1460.91
240.85433,1071.15
240.85443,757.50
240.85453,980.54
240.85463,1457.43
240.85473,1591.67
240.85483,1359.99
240.85493,917.39
240.85503,584.23
240.85513,386.56
240.85523,229.03
240.85533,98.30
240.85543,84.45
240.85553,110.13
240.85563,126.41
240.85573,117.70
240.85583,136.27
240.85593,103.67
240.85603,103.67
240.85613,286.33
240.85623,287.44
240.85633,415.13
240.85643,421.41
240.85653,341.11
240.85663,240.88
240.85673,156.13
240.85683,95.09
240.85693,62.35
240.85703,55.05
240.85713,71.78
240.85723,62.35
240.85733,64.44
240.85743,64.44
240.85753,77.04
240.85763,77.04
240.85773,78.10
240.85783,69.68
240.85793,85.51
240.85803,89.76
240.85813,93.96
240.85823,66.53
240.85833,58.17
240.85843,90.83
240.85853,89.08
240.85863,133.55
240.85873,101.90
240.85883,115.54
240.85893,98.30
240.85903,78.10
240.85913,116.62
240.85923,231.52
240.85933,242.28
240.85943,302.78
240.85953,342.51
240.85963,305.70
240.85973,310.44
240.85983,459.88
240.85993,436.32
240.86003,413.46
240.86013,288.28
240.86023,202.41
240.86033,152.84
240.86043,148.46
240.86053,148.46
240.86063,165.75
240.86073,144.56
240.86083,106.89
240.86093,84.45
240.86103,59.21
240.86113,69.68
240.86123,49.86
240.86133,69.68
240.86143,61.30
240.86153,62.35
240.86163,57.13
240.86173,63.39
240.86183,57.13
240.86193,55.05
240.86203,57.13
240.86213,49.86
240.86223,61.30
240.86233,63.39
240.86243,43.66
240.86253,72.83
240.86263,61.30
240.86273,51.94
240.86283,70.73
240.86293,72.83
240.86303,79.16
240.86313,87.63
240.86323,117.70
240.86333,114.45
240.86343,135.17
240.86353,140.65
240.86363,86.57
240.86373,82.33
240.86383,165.11
240.86393,172.02
240.86403,334.14
240.86413,430.89
240.86423,420.71
240.86433,345.71
240.86443,244.65
240.86453,182.61
240.86463,116.62
240.86473,78.10
240.86483,110.13
240.86493,94.03
240.86503,73.88
240.86513,61.30
240.86523,83.39
240.86533,81.27
240.86543,75.99
240.86553,71.78
240.86563,58.17
240.86573,68.63
240.86583,55.05
240.86593,65.48
240.86603,86.57
240.86613,97.23
240.86623,106.89
240.86633,90.83
240.86643,87.63
240.86653,97.23
240.86663,111.21
240.86673,104.74
240.86683,85.51
240.86693,80.21
240.86703,61.30
240.86713,59.21
240.86723,85.51
240.86733,71.78
240.86743,74.93
240.86753,91.89
240.86763,79.16
240.86773,65.48
240.86783,77.04
240.86793,69.68
240.86803,68.63
240.86813,69.68
240.86823,57.13
240.86833,62.35
240.86843,68.63
240.86853,72.83
240.86863,86.57
240.86873,77.04
240.86883,89.76
240.86893,128.59
240.86903,92.96
240.86913,106.89
240.86923,89.76
240.86933,82.33
240.86943,85.51
240.86953,98.30
240.86963,167.35
240.86973,177.46
240.86983,171.04
240.86993,163.38
240.87003,147.07
240.87013,102.59
240.87023,89.76
240.87033,90.83
240.87043,85.51
240.87053,63.39
240.87063,62.35
240.87073,78.10
240.87083,102.59
240.87093,91.89
240.87103,91.89
240.87113,105.82
240.87123,73.88
240.87133,89.76
240.87143,79.16
240.87153,71.78
240.87163,68.63
240.87173,75.99
240.87183,96.16
240.87193,86.57
240.87203,79.16
240.87213,79.88
240.87223,130.78
240.87233,140.38
240.87243,176.34
240.87253,161.98
240.87263,86.57
240.87273,92.42
240.87283,63.39
240.87293,107.97
240.87303,80.21
240.87313,103.67
240.87323,124.23
240.87333,176.35
240.87343,167.42
240.87353,167.00
240.87363,191.54
240.87373,190.70
240.87383,149.30
240.87393,127.50
240.87403,98.30
240.87413,84.45
240.87423,86.57
240.87433,83.39
240.87443,55.05
240.87453,62.35
240.87463,54.01
240.87473,62.35
240.87483,46.76
240.87493,60.26
240.87503,54.01
240.87513,70.73
240.87523,52.97
240.87533,63.39
240.87543,71.78
240.87553,51.94
240.87563,74.93
240.87573,62.35
240.87583,49.86
240.87593,147.29
240.87603,147.21
240.87613,233.22
240.87623,248.69
240.87633,241.44
240.87643,212.72
240.87653,149.72
240.87663,97.23
240.87673,103.67
240.87683,122.05
240.87693,179.74
240.87703,178.99
240.87713,178.43
240.87723,156.27
240.87733,114.45
240.87743,109.05
240.87753,81.27
240.87763,70.73
240.87773,78.10
240.87783,82.33
240.87793,97.23
240.87803,84.45
240.87813,85.51
240.87823,63.39
240.87833,72.83
240.87843,116.62
240.87853,123.14
240.87863,141.77
240.87873,137.36
240.87883,143.16
240.87893,149.16
240.87903,116.62
240.87913,94.03
240.87923,98.30
240.87933,129.69
240.87943,178.61
240.87953,175.23
240.87963,205.62
240.87973,157.94
240.87983,101.52
240.87993,104.74
240.88003,94.03
240.88013,87.63
240.88023,87.63
240.88033,124.23
240.88043,92.96
240.88053,98.30
240.88063,82.33
240.88073,98.30
240.88083,101.52
240.88093,107.97
240.88103,171.85
240.88113,183.03
240.88123,174.11
240.88133,161.84
240.88143,124.23
240.88153,120.96
240.88163,87.63
240.88173,85.51
240.88183,65.48
240.88193,84.45
240.88203,60.26
240.88213,77.04
240.88223,64.44
240.88233,102.59
240.88243,84.45
240.88253,75.99
240.88263,90.83
240.88273,75.99
240.88283,88.70
240.88293,77.04
240.88303,141.77
240.88313,127.50
240.88323,98.30
240.88333,119.88
240.88343,117.70
240.88353,91.89
240.88363,83.39
240.88373,69.68
240.88383,57.13
240.88393,75.99
240.88403,68.63
240.88413,87.63
240.88423,67.58
240.88433,88.70
240.88443,110.13
240.88453,203.69
240.88463,202.69
240.88473,240.74
240.88483,226.39
240.88493,196.41
240.88503,141.77
240.88513,98.30
240.88523,83.39
240.88533,71.78
240.88543,74.93
240.88553,74.93
240.88563,64.44
240.88573,60.26
240.88583,65.48
240.88593,94.03
240.88603,101.52
240.88613,106.92
240.88623,112.77
240.88633,75.69
240.88643,80.02
240.88653,70.82
240.88663,108.04
240.88673,110.96
240.88683,135.17
240.88693,118.35
240.88703,103.67
240.88713,82.33
240.88723,115.54
240.88733,101.52
240.88743,103.67
240.88753,82.33
240.88763,92.96
240.88773,89.76
240.88783,94.03
240.88793,98.30
240.88803,114.45
240.88813,138.46
240.88823,141.21
240.88833,96.16
240.88843,73.88
240.88853,69.68
240.88863,49.86
240.88873,49.86
240.88883,45.73
240.88893,43.66
240.88903,43.66
240.88913,50.90
240.88923,55.05
240.88933,72.83
240.88943,72.83
240.88953,58.17
240.88963,70.73
240.88973,67.58
240.88983,54.01
240.88993,60.26
240.89003,68.63
240.89013,58.17
240.89023,72.83
240.89033,54.01
240.89043,84.45
240.89053,71.78
240.89063,80.21
240.89073,78.10
240.89083,101.52
240.89093,79.16
240.89103,82.33
240.89113,58.17
240.89123,54.01
240.89133,67.58
240.89143,82.33
240.89153,114.45
240.89163,102.59
240.89173,100.45
240.89183,65.48
240.89193,84.45
240.89203,66.53
240.89213,62.35
240.89223,68.63
240.89233,73.88
240.89243,73.88
240.89253,84.45
240.89263,72.83
240.89273,78.10
240.89283,134.07
240.89293,140.67
240.89303,143.86
240.89313,183.59
240.89323,176.06
240.89333,175.78
240.89343,162.40
240.89353,160.03
240.89363,113.37
240.89373,91.89
240.89383,87.63
240.89393,77.04
240.89403,66.53
240.89413,46.76
240.89423,51.94
240.89433,49.86
240.89443,48.83
240.89453,77.04
240.89463,81.27
240.89473,111.21
240.89483,100.45
240.89493,111.21
240.89503,130.78
240.89513,132.97
240.89523,117.70
240.89533,109.05
240.89543,73.88
240.89553,71.78
240.89563,68.63
240.89573,92.96
240.89583,146.19
240.89593,204.84
240.89603,200.18
240.89613,223.04
240.89623,219.83
240.89633,165.61
240.89643,116.62
240.89653,77.04
240.89663,62.35
240.89673,90.83
240.89683,122.05
240.89693,119.88
240.89703,136.27
240.89713,174.10
240.89723,225.69
240.89733,327.31
240.89743,369.27
240.89753,324.66
240.89763,275.73
240.89773,212.17
240.89783,152.22
240.89793,88.70
240.89803,92.96
240.89813,84.45
240.89823,94.03
240.89833,84.45
240.89843,70.73
240.89853,70.73
240.89863,96.16
240.89873,69.68
240.89883,85.51
240.89893,62.35
240.89903,92.96
240.89913,113.37
240.89923,118.79
240.89933,119.88
240.89943,146.19
240.89953,139.56
240.89963,151.11
240.89973,150.97
240.89983,137.36
240.89993,102.59
240.90003,78.10
240.90013,62.35
240.90023,74.93
240.90033,75.69
240.90043,71.78
240.90053,57.13
240.90063,61.20
240.90073,229.18
240.90083,248.69
240.90093,341.11
240.90103,418.34
240.90113,423.22
240.90123,317.14
240.90133,226.80
240.90143,161.98
240.90153,143.98
240.90163,143.72
240.90173,88.70
240.90183,92.96
240.90193,71.78
240.90203,79.16
240.90213,90.83
240.90223,88.70
240.90233,60.26
240.90243,80.21
240.90253,67.58
240.90263,81.27
240.90273,83.39
240.90283,162.87
240.90293,157.38
240.90303,185.40
240.90313,180.38
240.90323,127.50
240.90333,118.79
240.90343,107.97
240.90353,103.67
240.90363,125.32
240.90373,99.37
240.90383,123.14
240.90393,176.35
240.90403,164.77
240.90413,184.01
240.90423,207.43
240.90433,186.94
240.90443,184.29
240.90453,177.04
240.90463,115.54
240.90473,102.59
240.90483,111.21
240.90493,89.76
240.90503,74.93
240.90513,69.68
240.90523,82.33
240.90533,77.04
240.90543,111.21
240.90553,178.61
240.90563,184.43
240.90573,409.98
240.90583,581.86
240.90593,612.52
240.90603,551.75
240.90613,381.54
240.90623,280.75
240.90633,231.40
240.90643,186.38
240.90653,153.06
240.90663,85.51
240.90673,70.73
240.90683,71.78
240.90693,55.05
240.90703,64.44
240.90713,62.35
240.90723,64.44
240.90733,70.73
240.90743,64.44
240.90753,73.88
240.90763,81.27
240.90773,106.89
240.90783,141.77
240.90793,146.19
240.90803,134.07
240.90813,123.14
240.90823,92.96
240.90833,77.04
240.90843,71.78
240.90853,80.21
240.90863,89.76
240.90873,319.42
240.90883,389.62
240.90893,594.12
240.90903,685.01
240.90913,582.13
240.90923,386.00
240.90933,275.18
240.90943,184.15
240.90953,102.59
240.90963,109.05
240.90973,91.89
240.90983,68.63
240.90993,81.27
240.91003,70.73
240.91013,73.88
240.91023,42.63
240.91033,62.35
240.91043,72.83
240.91053,95.09
240.91063,125.32
240.91073,142.75
240.91083,107.97
240.91093,74.93
240.91103,64.44
240.91113,52.97
240.91123,66.53
240.91133,66.53
240.91143,37.49
240.91153,52.97
240.91163,78.10
240.91173,86.57
240.91183,110.13
240.91193,89.76
240.91203,78.10
240.91213,74.93
240.91223,77.04
240.91233,79.16
240.91243,72.83
240.91253,72.83
240.91263,44.70
240.91273,44.70
240.91283,55.05
240.91293,66.53
240.91303,62.35
240.91313,80.21
240.91323,91.89
240.91333,101.52
240.91343,87.63
240.91353,96.16
240.91363,87.63
240.91373,105.82
240.91383,103.67
240.91393,102.59
240.91403,91.89
240.91413,89.76
240.91423,92.14
240.91433,92.56
240.91443,70.40
240.91453,65.24
240.91463,65.48
240.91473,66.49
240.91483,68.45
240.91493,102.59
240.91503,106.89
240.91513,94.03
240.91523,118.79
240.91533,84.45
240.91543,96.16
240.91553,182.01
240.91563,178.57
240.91573,210.08
240.91583,205.62
240.91593,167.28
240.91603,109.05
240.91613,77.04
240.91623,83.39
240.91633,78.10
240.91643,71.78
240.91653,100.45
240.91663,188.82
240.91673,190.98
240.91683,218.58
240.91693,202.27
240.91703,177.18
240.91713,140.38
240.91723,92.96
240.91733,81.27
240.91743,68.63
240.91753,61.30
240.91763,77.04
240.91773,63.39
240.91783,82.33
240.91793,119.88
240.91803,126.41
240.91813,136.27
240.91823,120.96
240.91833,104.74
240.91843,87.63
240.91853,240.92
240.91863,237.26
240.91873,251.48
240.91883,247.43
240.91893,193.35
240.91903,103.67
240.91913,80.21
240.91923,83.39
240.91933,98.30
240.91943,159.52
240.91953,143.86
240.91963,175.37
240.91973,175.09
240.91983,135.17
240.91993,123.14
240.92003,99.37
240.92013,92.96
240.92023,87.63
240.92033,114.45
240.92043,111.21
240.92053,102.59
240.92063,105.82
240.92073,87.63
240.92083,94.03
240.92093,88.70
240.92103,109.05
240.92113,88.70
240.92123,89.76
240.92133,114.45
240.92143,174.10
240.92153,171.88
240.92163,158.50
240.92173,109.05
240.92183,120.96
240.92193,221.02
240.92203,448.45
240.92213,3006.86
240.92223,4782.40
240.92233,5423.91
240.92243,4246.54
240.92253,2686.66
240.92263,1498.83
240.92273,848.39
240.92283,440.50
240.92293,278.52
240.92303,200.60
240.92313,91.89
240.92323,80.21
240.92333,68.63
240.92343,57.13
240.92353,100.45
240.92363,89.76
240.92373,81.27
240.92383,94.03
240.92393,109.05
240.92403,131.88
240.92413,110.13
240.92423,88.70
240.92433,95.09
240.92443,70.73
240.92453,71.78
240.92463,68.63
240.92473,88.70
240.92483,127.50
240.92493,122.05
240.92503,120.96
240.92513,101.52
240.92523,69.68
240.92533,87.63
240.92543,87.63
240.92553,87.63
240.92563,102.59
240.92573,85.51
240.92583,74.93
240.92593,84.45
240.92603,77.04
240.92613,64.44
240.92623,80.21
240.92633,152.84
240.92643,163.93
240.92653,165.89
240.92663,153.06
240.92673,141.49
240.92683,78.10
240.92693,66.53
240.92703,56.09
240.92713,56.09
240.92723,75.99
240.92733,54.01
240.92743,70.73
240.92753,60.26
240.92763,98.30
240.92773,80.21
240.92783,88.70
240.92793,96.16
240.92803,70.73
240.92813,80.21
240.92823,84.45
240.92833,96.33
240.92843,70.82
240.92853,64.96
240.92863,65.52
240.92873,81.55
240.92883,113.37
240.92893,151.39
240.92903,168.67
240.92913,150.55
240.92923,114.45
240.92933,97.23
240.92943,86.57
240.92953,64.44
240.92963,58.17
240.92973,60.26
240.92983,98.30
240.92993,146.19
240.93003,160.31
240.93013,256.91
240.93023,277.96
240.93033,239.91
240.93043,217.05
240.93053,163.10
240.93063,109.05
240.93073,91.89
240.93083,140.67
240.93093,139.96
240.93103,113.37
240.93113,91.89
240.93123,73.88
240.93133,85.51
240.93143,65.48
240.93153,50.90
240.93163,70.73
240.93173,107.97
240.93183,143.98
240.93193,158.78
240.93203,165.19
240.93213,143.44
240.93223,131.88
240.93233,140.93
240.93243,169.51
240.93253,173.27
240.93263,163.79
240.93273,152.50
240.93283,68.63
240.93293,70.73
240.93303,66.53
240.93313,71.78
240.93323,73.88
240.93333,85.51
240.93343,98.30
240.93353,99.37
240.93363,134.07
240.93373,126.41
240.93383,159.52
240.93393,170.21
240.93403,149.02
240.93413,116.62
240.93423,84.45
240.93433,67.58
240.93443,65.48
240.93453,78.10
240.93463,66.53
240.93473,90.83
240.93483,126.41
240.93493,151.73
240.93503,156.13
240.93513,163.99
240.93523,173.83
240.93533,264.86
240.93543,327.73
240.93553,337.77
240.93563,282.15
240.93573,189.31
240.93583,152.50
240.93593,107.97
240.93603,71.78
240.93613,72.83
240.93623,90.83
240.93633,56.09
240.93643,78.10
240.93653,65.48
240.93663,65.48
240.93673,57.13
240.93683,65.48
240.93693,58.17
240.93703,66.53
240.93713,63.39
240.93723,71.78
240.93733,57.13
240.93743,48.83
240.93753,52.97
240.93763,84.45
240.93773,92.96
240.93783,68.63
240.93793,84.45
240.93803,225.68
240.93813,235.86
240.93823,350.45
240.93833,341.39
240.93843,317.97
240.93853,235.73
240.93863,144.98
240.93873,65.48
240.93883,60.26
240.93893,211.75
240.93903,259.70
240.93913,463.23
240.93923,544.08
240.93933,497.66
240.93943,341.53
240.93953,253.43
240.93963,171.32
240.93973,156.27
240.93983,169.23
240.93993,172.72
240.94003,104.74
240.94013,111.21
240.94023,104.74
240.94033,113.37
240.94043,100.45
240.94053,98.30
240.94063,94.03
240.94073,94.03
240.94083,85.51
240.94093,72.83
240.94103,71.78
240.94113,64.44
240.94123,95.09
240.94133,101.52
240.94143,153.95
240.94153,152.92
240.94163,103.67
240.94173,107.97
240.94183,149.51
240.94193,145.53
240.94203,117.70
240.94213,102.59
240.94223,101.52
240.94233,103.43
240.94243,92.98
240.94253,113.05
240.94263,96.19
240.94273,110.40
240.94283,97.16
240.94293,114.73
240.94303,91.73
240.94313,80.21
240.94323,120.96
240.94333,128.59
240.94343,126.41
240.94353,119.88
240.94363,114.45
240.94373,100.45
240.94383,105.82
240.94393,97.23
240.94403,87.63
240.94413,90.83
240.94423,92.96
240.94433,78.10
240.94443,97.23
240.94453,136.27
240.94463,279.07
240.94473,306.54
240.94483,414.44
240.94493,433.95
240.94503,372.76
240.94513,268.62
240.94523,186.52
240.94533,99.37
240.94543,88.70
240.94553,104.74
240.94563,95.09
240.94573,92.96
240.94583,100.45
240.94593,99.37
240.94603,80.21
240.94613,80.21
240.94623,100.45
240.94633,94.03
240.94643,112.29
240.94653,100.45
240.94663,105.82
240.94673,123.14
240.94683,126.41
240.94693,154.87
240.94703,341.53
240.94713,413.32
240.94723,396.45
240.94733,335.40
240.94743,285.63
240.94753,176.62
240.94763,123.14
240.94773,105.82
240.94783,150.62
240.94793,163.38
240.94803,148.04
240.94813,142.75
240.94823,116.62
240.94833,132.97
240.94843,119.88
240.94853,88.70
240.94863,96.16
240.94873,65.48
240.94883,62.35
240.94893,73.88
240.94903,67.58
240.94913,82.33
240.94923,59.21
240.94933,90.83
240.94943,97.23
240.94953,78.10
240.94963,69.68
240.94973,67.58
240.94983,83.39
240.94993,79.16
240.95003,73.88
240.95013,84.45
240.95023,68.63
240.95033,102.59
240.95043,89.76
240.95053,94.03
240.95063,155.06
240.95073,210.08
240.95083,941.23
240.95093,1407.52
240.95103,1360.13
240.95113,1108.23
240.95123,747.32
240.95133,510.62
240.95143,348.08
240.95153,262.07
240.95163,193.63
240.95173,158.50
240.95183,188.33
240.95193,188.89
240.95203,151.67
240.95213,139.56
240.95223,83.39
240.95233,74.93
240.95243,66.53
240.95253,74.93
240.95263,68.63
240.95273,59.21
240.95283,52.97
240.95293,61.30
240.95303,116.62
240.95313,129.69
240.95323,140.65
240.95333,145.67
240.95343,124.23
240.95353,100.45
240.95363,111.21
240.95373,81.27
240.95383,91.89
240.95393,78.10
240.95403,79.16
240.95413,65.48
240.95423,107.97
240.95433,148.40
240.95443,147.07
240.95453,142.33
240.95463,137.36
240.95473,149.51
240.95483,141.77
240.95493,145.12
240.95503,145.67
240.95513,105.82
240.95523,83.39
240.95533,75.99
240.95543,84.45
240.95553,68.63
240.95563,105.82
240.95573,102.59
240.95583,112.29
240.95593,117.70
240.95603,79.16
240.95613,96.16
240.95623,162.87
240.95633,182.34
240.95643,192.51
240.95653,173.97
240.95663,165.33
240.95673,136.27
240.95683,126.16
240.95693,94.79
240.95703,77.23
240.95713,156.17
240.95723,139.40
240.95733,132.97
240.95743,141.63
240.95753,161.98
240.95763,146.37
240.95773,125.32
240.95783,98.30
240.95793,125.32
240.95803,155.57
240.95813,338.05
240.95823,389.34
240.95833,461.55
240.95843,370.80
240.95853,319.78
240.95863,236.42
240.95873,171.04
240.95883,167.42
240.95893,158.36
240.95903,155.85
240.95913,101.52
240.95923,75.99
240.95933,88.70
240.95943,160.64
240.95953,166.30
240.95963,227.64
240.95973,262.35
240.95983,342.23
240.95993,645.98
240.96003,817.86
240.96013,810.89
240.96023,580.74
240.96033,398.68
240.96043,267.37
240.96053,240.19
240.96063,188.05
240.96073,172.16
240.96083,155.15
240.96093,106.89
240.96103,94.03
240.96113,92.96
240.96123,312.01
240.96133,314.35
240.96143,525.40
240.96153,630.37
240.96163,508.67
240.96173,353.66
240.96183,232.38
240.96193,163.93
240.96203,104.74
240.96213,85.51
240.96223,145.08
240.96233,155.29
240.96243,202.27
240.96253,184.84
240.96263,139.68
240.96273,109.05
240.96283,79.16
240.96293,89.76
240.96303,116.62
240.96313,117.70
240.96323,215.22
240.96333,201.15
240.96343,262.35
240.96353,232.80
240.96363,202.55
240.96373,197.53
240.96383,177.18
240.96393,183.73
240.96403,148.60
240.96413,89.76
240.96423,112.29
240.96433,100.45
240.96443,89.76
240.96453,77.04
240.96463,77.04
240.96473,95.09
240.96483,103.67
240.96493,106.89
240.96503,112.29
240.96513,117.70
240.96523,107.97
240.96533,110.13
240.96543,98.30
240.96553,90.83
240.96563,100.45
240.96573,94.03
240.96583,89.76
240.96593,80.21
240.96603,103.67
240.96613,92.96
240.96623,91.89
240.96633,174.10
240.96643,194.32
240.96653,325.78
240.96663,337.77
240.96673,276.57
240.96683,222.76
240.96693,172.02
240.96703,146.23
240.96713,90.83
240.96723,79.16
240.96733,67.58
240.96743,71.78
240.96753,104.74
240.96763,72.83
240.96773,85.51
240.96783,95.09
240.96793,66.53
240.96803,80.21
240.96813,86.57
240.96823,98.30
240.96833,255.11
240.96843,262.07
240.96853,348.92
240.96863,341.95
240.96873,274.48
240.96883,184.29
240.96893,149.58
240.96903,106.89
240.96913,449.71
240.96923,569.31
240.96933,827.48
240.96943,920.60
240.96953,810.05
240.96963,588.41
240.96973,438.69
240.96983,275.73
240.96993,194.32
240.97003,91.89
240.97013,74.93
240.97023,65.48
240.97033,63.01
240.97043,55.62
240.97053,53.11
240.97063,53.39
240.97073,30.53
240.97083,96.16
240.97093,96.46
240.97103,139.68
240.97113,166.03
240.97123,141.07
240.97133,143.02
240.97143,150.27
240.97153,166.30
240.97163,151.81
240.97173,96.16
240.97183,103.67
240.97193,79.16
240.97203,77.04
240.97213,55.05
240.97223,59.21
240.97233,54.01
240.97243,61.30
240.97253,57.13
240.97263,69.68
240.97273,103.67
240.97283,126.41
240.97293,135.17
240.97303,148.46
240.97313,230.01
240.97323,297.06
240.97333,277.27
240.97343,284.65
240.97353,216.91
240.97363,159.89
240.97373,189.86
240.97383,156.69
240.97393,135.17
240.97403,148.60
240.97413,84.45
240.97423,65.48
240.97433,75.99
240.97443,62.35
240.97453,59.21
240.97463,56.09
240.97473,68.63
240.97483,55.05
240.97493,71.78
240.97503,62.35
240.97513,77.04
240.97523,82.33
240.97533,91.89
240.97543,132.97
240.97553,150.69
240.97563,213.14
240.97573,242.56
240.97583,207.57
240.97593,154.18
240.97603,106.89
240.97613,171.85
240.97623,165.19
240.97633,182.75
240.97643,171.04
240.97653,151.67
240.97663,94.03
240.97673,60.26
240.97683,83.39
240.97693,90.83
240.97703,78.10
240.97713,75.99
240.97723,81.27
240.97733,62.35
240.97743,167.35
240.97753,259.14
240.97763,566.94
240.97773,671.91
240.97783,610.57
240.97793,464.62
240.97803,349.34
240.97813,201.85
240.97823,100.45
240.97833,70.73
240.97843,84.45
240.97853,72.83
240.97863,63.39
240.97873,73.88
240.97883,80.21
240.97893,85.51
240.97903,104.74
240.97913,132.97
240.97923,112.29
240.97933,92.96
240.97943,102.59
240.97953,73.88
240.97963,65.48
240.97973,57.13
240.97983,62.35
240.97993,45.73
240.98003,44.70
240.98013,58.17
240.98023,61.30
240.98033,55.05
240.98043,47.79
240.98053,38.52
240.98063,55.05
240.98073,72.83
240.98083,107.97
240.98093,111.21
240.98103,97.23
240.98113,74.93
240.98123,203.69
240.98133,536.13
240.98143,1367.65
240.98153,1691.06
240.98163,1481.82
240.98173,941.79
240.98183,554.95
240.98193,336.37
240.98203,213.14
240.98213,142.33
240.98223,88.70
240.98233,71.78
240.98243,79.16
240.98253,62.35
240.98263,77.04
240.98273,72.83
240.98283,85.51
240.98293,78.10
240.98303,81.27
240.98313,82.33
240.98323,61.30
240.98333,59.21
240.98343,59.21
240.98353,63.39
240.98363,69.68
240.98373,61.30
240.98383,80.21
240.98393,50.90
240.98403,78.10
240.98413,63.39
240.98423,72.83
240.98433,81.27
240.98443,83.64
240.98453,81.55
240.98463,54.01
240.98473,67.61
240.98483,69.28
240.98493,74.93
240.98503,78.06
240.98513,103.02
240.98523,103.67
240.98533,126.41
240.98543,138.46
240.98553,146.19
240.98563,155.71
240.98573,153.48
240.98583,101.52
240.98593,67.58
240.98603,88.70
240.98613,72.83
240.98623,60.26
240.98633,49.86
240.98643,77.04
240.98653,77.04
240.98663,48.83
240.98673,56.09
240.98683,56.09
240.98693,79.16
240.98703,79.16
240.98713,104.74
240.98723,145.08
240.98733,139.82
240.98743,130.78
240.98753,125.32
240.98763,86.57
240.98773,115.54
240.98783,95.09
240.98793,81.27
240.98803,87.63
240.98813,91.89
240.98823,77.04
240.98833,64.44
240.98843,74.93
240.98853,131.88
240.98863,152.50
240.98873,258.45
240.98883,331.91
240.98893,303.61
240.98903,233.08
240.98913,183.59
240.98923,158.22
240.98933,142.05
240.98943,154.46
240.98953,144.70
240.98963,158.08
240.98973,146.19
240.98983,169.60
240.98993,148.60
240.99003,229.45
240.99013,290.37
240.99023,263.33
240.99033,205.06
240.99043,169.79
240.99053,145.12
240.99063,228.02
240.99073,882.96
240.99083,3246.21
240.99093,4019.18
240.99103,3843.96
240.99113,2679.97
240.99123,1597.94
240.99133,852.57
240.99143,516.34
240.99153,308.07
240.99163,231.40
240.99173,157.10
240.99183,139.56
240.99193,149.51
240.99203,175.50
240.99213,192.23
240.99223,173.27
240.99233,148.40
240.99243,139.68
240.99253,144.14
240.99263,191.12
240.99273,207.29
240.99283,180.52
240.99293,167.14
240.99303,288.42
240.99313,367.74
240.99323,365.65
240.99333,281.03
240.99343,189.03
240.99353,153.62
240.99363,145.95
240.99373,182.47
240.99383,195.72
240.99393,204.64
240.99403,193.49
240.99413,172.86
240.99423,96.16
240.99433,74.93
240.99443,84.45
240.99453,84.45
240.99463,70.73
240.99473,65.48
240.99483,57.13
240.99493,83.39
240.99503,91.89
240.99513,86.57
240.99523,105.82
240.99533,139.56
240.99543,139.68
240.99553,192.37
240.99563,240.05
240.99573,220.95
240.99583,170.07
240.99593,134.07
240.99603,142.33
240.99613,144.70
240.99623,138.46
240.99633,95.09
240.99643,115.54
240.99653,100.45
240.99663,124.23
240.99673,143.98
240.99683,139.56
240.99693,147.62
240.99703,187.77
240.99713,207.15
240.99723,173.41
240.99733,123.14
240.99743,92.96
240.99753,88.70
240.99763,96.16
240.99773,87.63
240.99783,82.33
240.99793,114.45
240.99803,95.09
240.99813,107.97
240.99823,124.23
240.99833,166.23
240.99843,149.58
240.99853,141.21
240.99863,122.11
240.99873,87.68
240.99883,76.39
240.99893,75.83
240.99903,66.77
240.99913,80.99
240.99923,65.48
240.99933,74.93
240.99943,66.53
240.99953,59.21
240.99963,71.78
240.99973,71.78
240.99983,67.58
240.99993,88.70
241.00003,102.59
241.00013,117.70
241.00023,117.70
241.00033,138.46
241.00043,118.79
241.00053,169.60
241.00063,155.85
241.00073,178.85
241.00083,159.33
241.00093,127.50
241.00103,263.46
241.00113,311.84
241.00123,572.10
241.00133,666.89
241.00143,629.39
241.00153,570.15
241.00163,442.60
241.00173,329.26
241.00183,216.49
241.00193,141.49
241.00203,207.14
241.00213,208.12
241.00223,220.25
241.00233,198.23
241.00243,162.26
241.00253,149.30
241.00263,161.29
241.00273,140.79
241.00283,74.93
241.00293,85.51
241.00303,86.57
241.00313,62.35
241.00323,73.88
241.00333,80.21
241.00343,106.89
241.00353,102.59
241.00363,101.52
241.00373,102.59
241.00383,115.54
241.00393,146.19
241.00403,143.16
241.00413,161.84
241.00423,141.49
241.00433,114.45
241.00443,131.88
241.00453,137.36
241.00463,88.70
241.00473,91.89
241.00483,87.63
241.00493,87.63
241.00503,88.70
241.00513,90.83
241.00523,97.23
241.00533,65.48
241.00543,60.26
241.00553,90.83
241.00563,72.83
241.00573,80.21
241.00583,179.74
241.00593,145.53
241.00603,172.86
241.00613,214.54
241.00623,235.59
241.00633,310.72
241.00643,317.00
241.00653,328.43
241.00663,324.94
241.00673,272.81
241.00683,200.04
241.00693,170.76
241.00703,125.32
241.00713,146.09
241.00723,104.74
241.00733,107.97
241.00743,128.59
241.00753,129.69
241.00763,143.30
241.00773,115.54
241.00783,119.88
241.00793,85.51
241.00803,90.83
241.00813,75.99
241.00823,74.93
241.00833,79.16
241.00843,81.27
241.00853,167.35
241.00863,243.67
241.00873,535.99
241.00883,672.05
241.00893,591.33
241.00903,458.63
241.00913,308.21
241.00923,242.70
241.00933,252.31
241.00943,339.02
241.00953,369.13
241.00963,297.62
241.00973,220.67
241.00983,190.00
241.00993,149.85
241.01003,106.89
241.01013,92.96
241.01023,72.83
241.01033,61.30
241.01043,68.63
241.01053,81.27
241.01063,59.21
241.01073,62.35
241.01083,83.39
241.01093,96.16
241.01103,132.97
241.01113,106.89
241.01123,89.76
241.01133,77.04
241.01143,62.35
241.01153,59.21
241.01163,75.99
241.01173,58.17
241.01183,94.03
241.01193,73.88
241.01203,79.16
241.01213,63.39
241.01223,77.04
241.01233,91.89
241.01243,80.29
241.01253,72.77
241.01263,74.44
241.01273,111.52
241.01283,74.72
241.01293,63.85
241.01303,74.16
241.01313,82.39
241.01323,83.39
241.01333,103.67
241.01343,151.73
241.01353,160.64
241.01363,171.04
241.01373,175.78
241.01383,119.88
241.01393,109.05
241.01403,89.76
241.01413,78.10
241.01423,81.27
241.01433,80.21
241.01443,66.53
241.01453,64.44
241.01463,40.57
241.01473,59.21
241.01483,51.94
241.01493,71.78
241.01503,69.68
241.01513,68.63
241.01523,89.76
241.01533,65.48
241.01543,82.33
241.01553,81.27
241.01563,72.83
241.01573,82.33
241.01583,134.07
241.01593,157.29
241.01603,132.97
241.01613,122.05
241.01623,88.70
241.01633,81.27
241.01643,74.93
241.01653,73.88
241.01663,73.88
241.01673,67.58
241.01683,67.58
241.01693,67.58
241.01703,57.13
241.01713,50.90
241.01723,63.39
241.01733,78.10
241.01743,88.70
241.01753,85.51
241.01763,96.16
241.01773,115.54
241.01783,173.13
241.01793,633.02
241.01803,806.99
241.01813,784.40
241.01823,594.54
241.01833,400.77
241.01843,284.79
241.01853,200.32
241.01863,148.18
241.01873,99.37
241.01883,79.16
241.01893,67.58
241.01903,75.99
241.01913,56.09
241.01923,50.90
241.01933,38.52
241.01943,68.63
241.01953,65.48
241.01963,114.45
241.01973,146.19
241.01983,163.38
241.01993,212.72
241.02003,216.63
241.02013,173.97
241.02023,104.74
241.02033,85.51
241.02043,70.73
241.02053,91.89
241.02063,119.88
241.02073,131.88
241.02083,158.40
241.02093,198.78
241.02103,1850.54
241.02113,3915.75
241.02123,4487.29
241.02133,4092.23
241.02143,2729.17
241.02153,1697.06
241.02163,1160.51
241.02173,884.77
241.02183,734.36
241.02193,562.06
241.02203,390.18
241.02213,277.55
241.02223,208.68
241.02233,295.39
241.02243,424.19
241.02253,419.45
241.02263,375.40
241.02273,329.26
241.02283,252.04
241.02293,278.80
241.02303,258.03
241.02313,247.30
241.02323,190.56
241.02333,95.09
241.02343,82.33
241.02353,103.67
241.02363,106.89
241.02373,101.52
241.02383,87.63
241.02393,193.38
241.02403,173.00
241.02413,245.48
241.02423,269.60
241.02433,229.87
241.02443,159.75
241.02453,135.17
241.02463,137.36
241.02473,142.33
241.02483,142.19
241.02493,100.45
241.02503,107.97
241.02513,101.52
241.02523,246.81
241.02533,273.78
241.02543,279.36
241.02553,256.77
241.02563,186.80
241.02573,159.19
241.02583,89.76
241.02593,68.63
241.02603,86.57
241.02613,73.88
241.02623,64.44
241.02633,65.48
241.02643,70.73
241.02653,63.71
241.02663,78.10
241.02673,75.99
241.02683,80.99
241.02693,57.15
241.02703,54.51
241.02713,52.41
241.02723,52.97
241.02733,57.13
241.02743,80.21
241.02753,95.09
241.02763,62.35
241.02773,89.76
241.02783,51.94
241.02793,60.26
241.02803,58.17
241.02813,62.35
241.02823,63.39
241.02833,60.26
241.02843,65.48
241.02853,69.68
241.02863,69.68
241.02873,59.21
241.02883,66.53
241.02893,64.44
241.02903,67.58
241.02913,49.86
241.02923,44.70
241.02933,48.83
241.02943,42.63
241.02953,107.97
241.02963,201.39
241.02973,221.92
241.02983,257.19
241.02993,228.20
241.03003,220.81
241.03013,208.68
241.03023,163.10
241.03033,142.47
241.03043,107.97
241.03053,79.16
241.03063,79.16
241.03073,123.14
241.03083,153.20
241.03093,386.70
241.03103,591.61
241.03113,678.18
241.03123,570.70
241.03133,412.76
241.03143,312.81
241.03153,240.88
241.03163,199.34
241.03173,142.75
241.03183,78.10
241.03193,85.51
241.03203,69.68
241.03213,85.51
241.03223,77.04
241.03233,86.57
241.03243,96.16
241.03253,90.83
241.03263,88.70
241.03273,132.97
241.03283,149.85
241.03293,177.18
241.03303,194.60
241.03313,178.15
241.03323,168.67
241.03333,142.47
241.03343,102.59
241.03353,67.58
241.03363,81.27
241.03373,62.35
241.03383,71.78
241.03393,70.73
241.03403,90.83
241.03413,87.63
241.03423,130.78
241.03433,130.78
241.03443,112.29
241.03453,110.13
241.03463,61.30
241.03473,64.44
241.03483,79.16
241.03493,74.93
241.03503,96.16
241.03513,99.37
241.03523,84.45
241.03533,106.89
241.03543,85.51
241.03553,81.27
241.03563,69.68
241.03573,90.83
241.03583,141.77
241.03593,140.52
241.03603,147.21
241.03613,149.30
241.03623,159.61
241.03633,117.70
241.03643,82.33
241.03653,73.88
241.03663,59.21
241.03673,89.76
241.03683,70.73
241.03693,81.27
241.03703,83.39
241.03713,74.93
241.03723,81.27
241.03733,68.63
241.03743,56.09
241.03753,59.21
241.03763,65.48
241.03773,75.99
241.03783,61.30
241.03793,52.97
241.03803,57.13
241.03813,58.17
241.03823,64.44
241.03833,73.88
241.03843,77.04
241.03853,80.21
241.03863,85.51
241.03873,87.63
241.03883,140.67
241.03893,138.46
241.03903,123.14
241.03913,136.27
241.03923,105.82
241.03933,116.62
241.03943,113.37
241.03953,113.37
241.03963,138.46
241.03973,119.88
241.03983,99.37
241.03993,104.74
241.04003,89.76
241.04013,84.45
241.04023,74.93
241.04033,71.78
241.04043,49.86
241.04053,56.09
241.04063,49.86
241.04073,51.58
241.04083,81.83
241.04093,81.97
241.04103,94.03
241.04113,87.26
241.04123,89.76
241.04133,112.29
241.04143,159.52
241.04153,142.33
241.04163,142.19
241.04173,171.32
241.04183,178.01
241.04193,141.91
241.04203,124.23
241.04213,113.37
241.04223,82.33
241.04233,66.53
241.04243,80.21
241.04253,85.51
241.04263,85.51
241.04273,86.57
241.04283,87.63
241.04293,86.57
241.04303,91.89
241.04313,86.57
241.04323,52.97
241.04333,65.48
241.04343,61.30
241.04353,58.17
241.04363,55.05
241.04373,72.83
241.04383,83.39
241.04393,83.39
241.04403,87.63
241.04413,103.67
241.04423,98.30
241.04433,132.97
241.04443,110.13
241.04453,89.76
241.04463,83.39
241.04473,83.39
241.04483,74.93
241.04493,100.45
241.04503,118.79
241.04513,143.98
241.04523,145.53
241.04533,187.63
241.04543,179.83
241.04553,170.76
241.04563,140.67
241.04573,149.16
241.04583,179.55
241.04593,198.23
241.04603,182.20
241.04613,160.73
241.04623,125.32
241.04633,98.30
241.04643,88.70
241.04653,69.68
241.04663,59.21
241.04673,59.21
241.04683,59.21
241.04693,74.93
241.04703,69.68
241.04713,78.10
241.04723,82.33
241.04733,95.09
241.04743,100.45
241.04753,136.27
241.04763,131.88
241.04773,116.62
241.04783,144.14
241.04793,100.45
241.04803,86.57
241.04813,99.37
241.04823,85.51
241.04833,81.27
241.04843,83.39
241.04853,69.68
241.04863,69.68
241.04873,69.68
241.04883,51.94
241.04893,62.35
241.04903,64.44
241.04913,88.70
241.04923,69.68
241.04933,77.04
241.04943,72.83
241.04953,68.63
241.04963,64.44
241.04973,79.16
241.04983,47.79
241.04993,55.05
241.05003,58.17
241.05013,52.97
241.05023,83.39
241.05033,122.05
241.05043,136.27
241.05053,146.51
241.05063,165.19
241.05073,186.66
241.05083,201.99
241.05093,270.85
241.05103,275.45
241.05113,228.34
241.05123,160.87
241.05133,104.74
241.05143,113.37
241.05153,262.26
241.05163,266.53
241.05173,269.60
241.05183,241.72
241.05193,201.71
241.05203,144.28
241.05213,71.78
241.05223,78.10
241.05233,70.73
241.05243,95.09
241.05253,77.04
241.05263,100.45
241.05273,118.79
241.05283,120.96
241.05293,89.76
241.05303,89.76
241.05313,78.10
241.05323,68.63
241.05333,48.83
241.05343,122.05
241.05353,353.23
241.05363,393.53
241.05373,527.77
241.05383,488.88
241.05393,433.12
241.05403,302.36
241.05413,216.07
241.05423,187.35
241.05433,180.66
241.05443,167.84
241.05453,162.82
241.05463,140.10
241.05473,177.32
241.05483,476.33
241.05493,625.63
241.05503,699.37
241.05513,563.73
241.05523,413.60
241.05533,269.74
241.05543,204.36
241.05553,138.84
241.05563,95.91
241.05573,96.74
241.05583,144.98
241.05593,132.57
241.05603,108.04
241.05613,99.11
241.05623,74.72
241.05633,84.20
241.05643,69.84
241.05653,56.74
241.05663,77.92
241.05673,74.58
241.05683,85.87
241.05693,99.95
241.05703,75.97
241.05713,898.01
241.05723,3097.05
241.05733,4038.28
241.05743,3848.69
241.05753,2732.80
241.05763,1626.94
241.05773,903.17
241.05783,542.82
241.05793,383.49
241.05803,299.15
241.05813,201.15
241.05823,138.84
241.05833,122.53
241.05843,127.41
241.05853,130.90
241.05863,154.87
241.05873,201.71
241.05883,238.51
241.05893,202.55
241.05903,149.85
241.05913,111.52
241.05923,82.39
241.05933,89.77
241.05943,86.71
241.05953,97.30
241.05963,225.97
241.05973,271.27
241.05983,281.31
241.05993,247.43
241.06003,175.09
241.06013,134.94
241.06023,91.03
241.06033,81.55
241.06043,76.53
241.06053,79.04
241.06063,78.48
241.06073,108.73
241.06083,109.15
241.06093,116.40
241.06103,88.24
241.06113,141.35
241.06123,299.15
241.06133,394.22
241.06143,337.77
241.06153,240.33
241.06163,181.36
241.06173,160.59
241.06183,147.21
241.06193,156.13
241.06203,98.97
241.06213,81.41
241.06223,89.22
241.06233,121.56
241.06243,119.47
241.06253,184.98
241.06263,233.22
241.06273,239.21
241.06283,222.76
241.06293,199.90
241.06303,172.30
241.06313,143.02
241.06323,124.48
241.06333,109.01
241.06343,101.07
241.06353,84.48
241.06363,71.09
241.06373,69.70
241.06383,68.17
241.06393,75.69
241.06403,88.66
241.06413,87.68
241.06423,87.13
241.06433,106.78
241.06443,114.73
241.06453,84.76
241.06463,69.14
241.06473,66.77
241.06483,65.94
241.06493,67.33
241.06503,72.21
241.06513,109.01
241.06523,187.49
241.06533,216.07
241.06543,187.21
241.06553,158.36
241.06563,125.88
241.06573,84.34
241.06583,74.72
241.06593,59.38
241.06603,36.10
241.06613,38.33
241.06623,48.37
241.06633,63.98
241.06643,82.25
241.06653,77.09
241.06663,59.80
241.06673,60.78
241.06683,77.09
241.06693,204.78
241.06703,298.59
241.06713,302.92
241.06723,238.79
241.06733,199.20
241.06743,151.81
241.06753,106.64
241.06763,88.94
241.06773,102.32
241.06783,101.34
241.06793,93.26
241.06803,68.17
241.06813,85.73
241.06823,69.28
241.06833,109.15
241.06843,110.96
241.06853,90.05
241.06863,90.19
241.06873,81.55
241.06883,121.00
241.06893,181.22
241.06903,164.35
241.06913,194.88
241.06923,140.79
241.06933,98.30
241.06943,87.63
241.06953,74.93
241.06963,89.76
241.06973,581.05
241.06983,938.16
241.06993,1814.43
241.07003,2168.65
241.07013,1987.98
241.07023,1462.86
241.07033,872.09
241.07043,514.94
241.07053,289.67
241.07063,159.06
241.07073,122.05
241.07083,182.01
241.07093,194.88
241.07103,177.46
241.07113,147.35
241.07123,173.27
241.07133,184.29
241.07143,172.58
241.07153,201.99
241.07163,270.16
241.07173,263.47
241.07183,245.48
241.07193,217.05
241.07203,171.74
241.07213,151.73
241.07223,149.85
241.07233,177.60
241.07243,167.56
241.07253,147.90
241.07263,101.52
241.07273,94.03
241.07283,87.63
241.07293,77.04
241.07303,66.53
241.07313,69.68
241.07323,68.63
241.07333,78.10
241.07343,80.21
241.07353,77.04
241.07363,69.68
241.07373,59.21
241.07383,62.35
241.07393,73.88
241.07403,79.16
241.07413,63.39
241.07423,68.63
241.07433,95.09
241.07443,101.52
241.07453,75.99
241.07463,129.69
241.07473,128.59
241.07483,146.37
241.07493,183.03
241.07503,179.13
241.07513,626.32
241.07523,2189.42
241.07533,2872.06
241.07543,2767.65
241.07553,1999.27
241.07563,1305.62
241.07573,846.58
241.07583,513.55
241.07593,317.55
241.07603,192.93
241.07613,140.10
241.07623,96.16
241.07633,58.17
241.07643,69.68
241.07653,86.57
241.07663,71.78
241.07673,61.30
241.07683,62.35
241.07693,63.39
241.07703,86.57
241.07713,86.57
241.07723,130.78
241.07733,147.21
241.07743,190.42
241.07753,196.83
241.07763,175.92
241.07773,131.88
241.07783,167.35
241.07793,186.38
241.07803,189.58
241.07813,193.21
241.07823,102.59
241.07833,101.52
241.07843,137.36
241.07853,130.78
241.07863,101.52
241.07873,82.33
241.07883,111.21
241.07893,107.97
241.07903,90.83
241.07913,109.05
241.07923,75.99
241.07933,54.01
241.07943,62.35
241.07953,52.97
241.07963,60.26
241.07973,59.21
241.07983,68.63
241.07993,70.73
241.08003,59.21
241.08013,70.73
241.08023,75.99
241.08033,98.30
241.08043,150.62
241.08053,142.19
241.08063,115.54
241.08073,99.37
241.08083,85.51
241.08093,105.82
241.08103,141.77
241.08113,172.97
241.08123,142.88
241.08133,131.88
241.08143,109.05
241.08153,89.76
241.08163,92.28
241.08173,83.64
241.08183,103.16
241.08193,86.57
241.08203,75.55
241.08213,59.94
241.08223,87.63
241.08233,88.10
241.08243,68.63
241.08253,100.45
241.08263,97.23
241.08273,96.16
241.08283,134.07
241.08293,140.67
241.08303,147.76
241.08313,103.67
241.08323,84.45
241.08333,110.13
241.08343,85.51
241.08353,99.37
241.08363,116.62
241.08373,90.83
241.08383,101.52
241.08393,110.13
241.08403,91.89
241.08413,81.27
241.08423,61.30
241.08433,70.73
241.08443,68.63
241.08453,79.16
241.08463,69.68
241.08473,125.32
241.08483,127.50
241.08493,122.05
241.08503,115.54
241.08513,104.74
241.08523,99.37
241.08533,106.89
241.08543,142.87
241.08553,184.27
241.08563,183.17
241.08573,219.83
241.08583,210.22
241.08593,178.01
241.08603,153.20
241.08613,117.70
241.08623,90.83
241.08633,96.16
241.08643,101.52
241.08653,138.46
241.08663,127.50
241.08673,102.59
241.08683,176.35
241.08693,189.86
241.08703,193.07
241.08713,151.81
241.08723,141.07
241.08733,87.63
241.08743,92.96
241.08753,81.27
241.08763,63.39
241.08773,91.89
241.08783,78.10
241.08793,82.33
241.08803,72.83
241.08813,92.96
241.08823,155.06
241.08833,149.44
241.08843,183.45
241.08853,168.95
241.08863,156.55
241.08873,94.03
241.08883,87.63
241.08893,84.45
241.08903,67.58
241.08913,43.66
241.08923,58.17
241.08933,56.09
241.08943,67.58
241.08953,101.52
241.08963,89.76
241.08973,99.37
241.08983,89.76
241.08993,97.23
241.09003,86.57
241.09013,98.30
241.09023,95.09
241.09033,86.57
241.09043,74.93
241.09053,72.83
241.09063,102.59
241.09073,95.09
241.09083,140.67
241.09093,173.83
241.09103,616.01
241.09113,1036.44
241.09123,1152.14
241.09133,948.90
241.09143,729.34
241.09153,448.31
241.09163,299.71
241.09173,178.71
241.09183,141.07
241.09193,135.17
241.09203,98.30
241.09213,161.75
241.09223,158.50
241.09233,239.21
241.09243,255.24
241.09253,224.43
241.09263,187.49
241.09273,99.37
241.09283,67.58
241.09293,59.21
241.09303,70.73
241.09313,60.26
241.09323,67.58
241.09333,120.96
241.09343,178.61
241.09353,174.53
241.09363,169.93
241.09373,110.13
241.09383,112.29
241.09393,87.63
241.09403,84.45
241.09413,77.04
241.09423,72.83
241.09433,78.10
241.09443,89.76
241.09453,107.97
241.09463,70.73
241.09473,84.45
241.09483,60.26
241.09493,69.68
241.09503,70.73
241.09513,83.39
241.09523,71.78
241.09533,81.27
241.09543,66.53
241.09553,90.83
241.09563,78.10
241.09573,80.02
241.09583,87.63
241.09593,91.17
241.09603,87.68
241.09613,94.10
241.09623,88.66
241.09633,156.27
241.09643,243.11
241.09653,282.15
241.09663,269.88
241.09673,210.63
241.09683,118.79
241.09693,113.37
241.09703,91.89
241.09713,91.89
241.09723,95.09
241.09733,89.76
241.09743,83.39
241.09753,60.26
241.09763,69.68
241.09773,66.53
241.09783,64.44
241.09793,96.16
241.09803,100.45
241.09813,88.70
241.09823,87.63
241.09833,112.29
241.09843,131.88
241.09853,158.40
241.09863,159.06
241.09873,149.72
241.09883,161.01
241.09893,116.62
241.09903,84.45
241.09913,115.54
241.09923,98.30
241.09933,96.16
241.09943,126.41
241.09953,125.32
241.09963,101.52
241.09973,109.05
241.09983,124.23
241.09993,95.09
241.10003,109.05
241.10013,89.76
241.10023,86.57
241.10033,82.33
241.10043,69.68
241.10053,83.39
241.10063,57.13
241.10073,86.57
241.10083,77.04
241.10093,75.99
241.10103,88.70
241.10113,94.03
241.10123,83.39
241.10133,77.04
241.10143,78.10
241.10153,89.76
241.10163,140.67
241.10173,110.13
241.10183,137.36
241.10193,104.74
241.10203,107.97
241.10213,104.74
241.10223,128.59
241.10233,105.82
241.10243,102.59
241.10253,92.96
241.10263,102.59
241.10273,109.05
241.10283,86.57
241.10293,89.76
241.10303,71.78
241.10313,77.04
241.10323,56.09
241.10333,50.90
241.10343,67.58
241.10353,77.04
241.10363,68.63
241.10373,69.68
241.10383,96.16
241.10393,135.17
241.10403,127.50
241.10413,134.07
241.10423,135.17
241.10433,103.67
241.10443,159.52
241.10453,169.65
241.10463,194.88
241.10473,184.29
241.10483,185.12
241.10493,228.89
241.10503,224.57
241.10513,184.15
241.10523,153.62
241.10533,77.04
241.10543,80.21
241.10553,89.76
241.10563,71.78
241.10573,63.39
241.10583,55.05
241.10593,72.83
241.10603,89.76
241.10613,88.70
241.10623,111.21
241.10633,86.57
241.10643,88.70
241.10653,72.83
241.10663,64.44
241.10673,81.27
241.10683,94.03
241.10693,84.45
241.10703,86.57
241.10713,85.51
241.10723,91.89
241.10733,100.45
241.10743,105.82
241.10753,96.16
241.10763,111.21
241.10773,118.79
241.10783,102.59
241.10793,85.51
241.10803,78.10
241.10813,84.45
241.10823,62.35
241.10833,83.39
241.10843,57.13
241.10853,97.23
241.10863,124.23
241.10873,114.45
241.10883,106.89
241.10893,81.27
241.10903,57.13
241.10913,72.83
241.10923,123.14
241.10933,127.50
241.10943,141.77
241.10953,113.37
241.10963,151.73
241.10973,148.04
241.10983,152.64
241.10993,201.15
241.11003,253.85
241.11013,287.44
241.11023,251.34
241.11033,201.43
241.11043,162.54
241.11053,106.89
241.11063,149.51
241.11073,152.92
241.11083,153.76
241.11093,168.26
241.11103,167.28
241.11113,165.61
241.11123,130.78
241.11133,87.63
241.11143,77.04
241.11153,73.88
241.11163,63.39
241.11173,88.70
241.11183,88.70
241.11193,57.13
241.11203,72.83
241.11213,81.27
241.11223,73.88
241.11233,74.93
241.11243,66.53
241.11253,43.66
241.11263,69.68
241.11273,58.17
241.11283,56.09
241.11293,52.97
241.11303,52.97
241.11313,61.30
241.11323,67.58
241.11333,60.26
241.11343,194.52
241.11353,201.29
241.11363,310.44
241.11373,356.45
241.11383,320.34
241.11393,227.78
241.11403,153.48
241.11413,136.27
241.11423,156.13
241.11433,261.79
241.11443,335.81
241.11453,295.25
241.11463,232.38
241.11473,168.95
241.11483,119.88
241.11493,149.51
241.11503,140.38
241.11513,109.05
241.11523,98.30
241.11533,103.67
241.11543,147.29
241.11553,145.12
241.11563,186.94
241.11573,294.83
241.11583,322.57
241.11593,339.30
241.11603,286.89
241.11613,210.08
241.11623,161.56
241.11633,129.69
241.11643,152.84
241.11653,169.79
241.11663,210.35
241.11673,191.40
241.11683,204.22
241.11693,172.58
241.11703,160.59
241.11713,111.21
241.11723,90.83
241.11733,86.57
241.11743,67.58
241.11753,69.68
241.11763,59.21
241.11773,78.10
241.11783,79.16
241.11793,75.99
241.11803,105.82
241.11813,112.29
241.11823,110.13
241.11833,114.45
241.11843,83.39
241.11853,86.57
241.11863,95.09
241.11873,95.09
241.11883,106.89
241.11893,127.50
241.11903,118.79
241.11913,100.45
241.11923,91.89
241.11933,100.45
241.11943,105.82
241.11953,102.59
241.11963,105.82
241.11973,85.51
241.11983,73.88
241.11993,65.48
241.12003,80.21
241.12013,72.83
241.12023,87.63
241.12033,98.30
241.12043,123.14
241.12053,117.70
241.12063,142.87
241.12073,103.67
241.12083,105.82
241.12093,147.29
241.12103,153.90
241.12113,142.61
241.12123,123.14
241.12133,122.05
241.12143,96.16
241.12153,68.63
241.12163,56.09
241.12173,77.04
241.12183,60.26
241.12193,104.74
241.12203,187.68
241.12213,197.25
241.12223,195.58
241.12233,168.67
241.12243,155.57
241.12253,126.41
241.12263,113.37
241.12273,102.59
241.12283,120.96
241.12293,124.23
241.12303,115.54
241.12313,123.14
241.12323,117.70
241.12333,90.83
241.12343,89.76
241.12353,69.68
241.12363,59.21
241.12373,61.48
241.12383,68.86
241.12393,45.31
241.12403,67.19
241.12413,111.94
241.12423,112.29
241.12433,137.36
241.12443,119.47
241.12453,119.05
241.12463,157.29
241.12473,163.38
241.12483,107.97
241.12493,136.27
241.12503,144.84
241.12513,197.39
241.12523,172.02
241.12533,154.32
241.12543,92.96
241.12553,77.04
241.12563,67.58
241.12573,78.10
241.12583,79.16
241.12593,50.90
241.12603,73.88
241.12613,57.13
241.12623,78.10
241.12633,80.21
241.12643,103.67
241.12653,97.23
241.12663,110.13
241.12673,261.07
241.12683,326.34
241.12693,633.99
241.12703,782.59
241.12713,727.53
241.12723,523.17
241.12733,325.78
241.12743,227.22
241.12753,504.49
241.12763,1889.15
241.12773,2181.19
241.12783,2056.57
241.12793,1477.08
241.12803,936.07
241.12813,553.56
241.12823,338.74
241.12833,190.70
241.12843,149.44
241.12853,135.17
241.12863,130.78
241.12873,148.40
241.12883,149.51
241.12893,105.82
241.12903,97.23
241.12913,83.39
241.12923,62.35
241.12933,163.99
241.12943,223.74
241.12953,721.12
241.12963,824.69
241.12973,820.93
241.12983,590.78
241.12993,415.41
241.13003,274.48
241.13013,167.42
241.13023,91.89
241.13033,90.83
241.13043,88.70
241.13053,123.14
241.13063,141.77
241.13073,111.21
241.13083,109.05
241.13093,88.70
241.13103,62.35
241.13113,67.58
241.13123,85.51
241.13133,109.05
241.13143,112.29
241.13153,100.45
241.13163,70.73
241.13173,69.68
241.13183,68.63
241.13193,65.48
241.13203,46.76
241.13213,61.30
241.13223,85.51
241.13233,111.21
241.13243,107.97
241.13253,123.14
241.13263,127.50
241.13273,105.82
241.13283,216.38
241.13293,256.77
241.13303,543.66
241.13313,625.49
241.13323,534.32
241.13333,412.35
241.13343,276.99
241.13353,169.23
241.13363,187.21
241.13373,218.58
241.13383,249.53
241.13393,328.29
241.13403,356.72
241.13413,344.04
241.13423,276.57
241.13433,193.21
241.13443,150.83
241.13453,139.54
241.13463,113.37
241.13473,86.57
241.13483,80.21
241.13493,94.03
241.13503,78.10
241.13513,80.21
241.13523,89.76
241.13533,80.21
241.13543,84.45
241.13553,105.82
241.13563,77.04
241.13573,101.52
241.13583,92.96
241.13593,78.10
241.13603,68.63
241.13613,62.35
241.13623,58.17
241.13633,72.83
241.13643,37.49
241.13653,57.13
241.13663,66.53
241.13673,59.21
241.13683,43.66
241.13693,44.70
241.13703,52.97
241.13713,73.88
241.13723,64.44
241.13733,94.03
241.13743,77.04
241.13753,109.05
241.13763,115.54
241.13773,130.78
241.13783,127.50
241.13793,122.95
241.13803,143.72
241.13813,186.38
241.13823,169.79
241.13833,150.83
241.13843,137.17
241.13853,94.03
241.13863,88.70
241.13873,170.72
241.13883,248.97
241.13893,416.39
241.13903,447.89
241.13913,381.82
241.13923,294.27
241.13933,212.72
241.13943,169.65
241.13953,119.88
241.13963,97.23
241.13973,86.57
241.13983,82.33
241.13993,91.89
241.14003,81.27
241.14013,69.68
241.14023,80.21
241.14033,91.89
241.14043,90.83
241.14053,115.54
241.14063,99.37
241.14073,92.96
241.14083,88.70
241.14093,88.70
241.14103,90.83
241.14113,77.04
241.14123,86.57
241.14133,70.73
241.14143,89.76
241.14153,111.21
241.14163,128.59
241.14173,109.05
241.14183,101.52
241.14193,109.05
241.14203,78.10
241.14213,105.82
241.14223,80.21
241.14233,96.16
241.14243,104.74
241.14253,73.88
241.14263,101.52
241.14273,136.27
241.14283,104.74
241.14293,111.21
241.14303,96.16
241.14313,110.13
241.14323,100.45
241.14333,104.74
241.14343,103.67
241.14353,115.54
241.14363,111.21
241.14373,96.16
241.14383,77.04
241.14393,95.09
241.14403,101.52
241.14413,70.73
241.14423,74.93
241.14433,64.44
241.14443,85.51
241.14453,74.93
241.14463,98.30
241.14473,82.33
241.14483,84.45
241.14493,89.76
241.14503,101.52
241.14513,107.97
241.14523,111.21
241.14533,86.57
241.14543,104.74
241.14553,73.88
241.14563,79.16
241.14573,84.45
241.14583,77.04
241.14593,69.68
241.14603,65.48
241.14613,74.93
241.14623,98.30
241.14633,128.59
241.14643,155.06
241.14653,145.12
241.14663,126.41
241.14673,98.30
241.14683,100.45
241.14693,140.67
241.14703,162.87
241.14713,156.27
241.14723,153.06
241.14733,147.49
241.14743,116.62
241.14753,71.78
241.14763,82.33
241.14773,66.53
241.14783,73.88
241.14793,72.83
241.14803,81.27
241.14813,83.39
241.14823,88.70
241.14833,87.63
241.14843,102.59
241.14853,252.74
241.14863,278.80
241.14873,448.59
241.14883,508.39
241.14893,410.67
241.14903,293.58
241.14913,201.43
241.14923,141.07
241.14933,88.70
241.14943,64.44
241.14953,84.45
241.14963,77.04
241.14973,67.58
241.14983,73.88
241.14993,67.58
241.15003,60.26
241.15013,69.68
241.15023,78.10
241.15033,71.78
241.15043,106.89
241.15053,156.17
241.15063,159.47
241.15073,215.65
241.15083,178.29
241.15093,152.78
241.15103,153.20
241.15113,141.63
241.15123,146.93
241.15133,142.47
241.15143,284.38
241.15153,356.17
241.15163,385.72
241.15173,324.11
241.15183,223.74
241.15193,191.40
241.15203,148.04
241.15213,99.37
241.15223,94.03
241.15233,91.89
241.15243,82.11
241.15253,93.68
241.15263,119.19
241.15273,128.81
241.15283,143.02
241.15293,118.77
241.15303,97.16
241.15313,103.57
241.15323,116.12
241.15333,103.02
241.15343,94.79
241.15353,110.27
241.15363,116.68
241.15373,110.96
241.15383,98.42
241.15393,76.53
241.15403,89.77
241.15413,101.76
241.15423,116.68
241.15433,103.30
241.15443,112.91
241.15453,124.76
241.15463,114.17
241.15473,121.97
241.15483,162.26
241.15493,197.53
241.15503,247.71
241.15513,215.65
241.15523,186.10
241.15533,155.15
241.15543,113.75
241.15553,105.94
241.15563,92.84
241.15573,106.64
241.15583,113.19
241.15593,73.32
241.15603,61.34
241.15613,85.31
241.15623,89.49
241.15633,377.36
241.15643,1013.02
241.15653,1264.36
241.15663,1173.89
241.15673,842.12
241.15683,536.97
241.15693,344.74
241.15703,236.70
241.15713,224.71
241.15723,220.81
241.15733,183.31
241.15743,157.10
241.15753,114.87
241.15763,99.95
241.15773,97.02
241.15783,117.24
241.15793,105.53
241.15803,93.68
241.15813,94.93
241.15823,112.64
241.15833,112.22
241.15843,77.65
241.15853,66.21
241.15863,71.79
241.15873,80.71
241.15883,73.18
241.15893,79.74
241.15903,78.06
241.15913,74.02
241.15923,75.14
241.15933,69.28
241.15943,66.63
241.15953,63.43
241.15963,101.62
241.15973,130.62
241.15983,160.45
241.15993,157.66
241.16003,156.27
241.16013,156.82
241.16023,158.50
241.16033,142.05
241.16043,106.78
241.16053,108.31
241.16063,123.93
241.16073,147.62
241.16083,167.84
241.16093,143.72
241.16103,103.30
241.16113,101.20
241.16123,119.19
241.16133,119.33
241.16143,119.47
241.16153,120.44
241.16163,115.56
241.16173,92.28
241.16183,86.01
241.16193,83.92
241.16203,68.72
241.16213,67.05
241.16223,58.97
241.16233,68.03
241.16243,70.68
241.16253,73.18
241.16263,76.95
241.16273,84.62
241.16283,100.79
241.16293,77.65
241.16303,76.25
241.16313,117.65
241.16323,133.13
241.16333,150.69
241.16343,144.84
241.16353,116.82
241.16363,105.11
241.16373,87.40
241.16383,87.68
241.16393,69.28
241.16403,63.71
241.16413,61.89
241.16423,77.37
241.16433,63.43
241.16443,69.42
241.16453,70.54
241.16463,165.47
241.16473,274.34
241.16483,475.35
241.16493,624.79
241.16503,576.84
241.16513,478.56
241.16523,333.17
241.16533,234.19
241.16543,131.04
241.16553,118.07
241.16563,93.68
241.16573,78.20
241.16583,75.00
241.16593,92.70
241.16603,73.18
241.16613,119.19
241.16623,115.56
241.16633,103.71
241.16643,95.35
241.16653,66.63
241.16663,63.39
241.16673,59.21
241.16683,62.35
241.16693,47.79
241.16703,49.86
241.16713,49.86
241.16723,68.63
241.16733,43.66
241.16743,59.21
241.16753,123.14
241.16763,147.29
241.16773,148.32
241.16783,167.84
241.16793,183.31
241.16803,256.50
241.16813,308.07
241.16823,296.09
241.16833,237.40
241.16843,190.70
241.16853,87.63
241.16863,136.27
241.16873,106.89
241.16883,107.97
241.16893,88.70
241.16903,77.04
241.16913,57.13
241.16923,96.16
241.16933,145.08
241.16943,162.12
241.16953,204.78
241.16963,192.93
241.16973,168.53
241.16983,101.52
241.16993,107.97
241.17003,119.88
241.17013,122.05
241.17023,115.54
241.17033,111.21
241.17043,96.16
241.17053,74.93
241.17063,80.21
241.17073,78.10
241.17083,78.10
241.17093,60.26
241.17103,402.05
241.17113,503.23
241.17123,891.18
241.17133,1014.41
241.17143,887.56
241.17153,651.56
241.17163,394.22
241.17173,284.65
241.17183,189.31
241.17193,149.44
241.17203,126.41
241.17213,105.82
241.17223,89.76
241.17233,86.57
241.17243,74.93
241.17253,158.40
241.17263,147.49
241.17273,196.55
241.17283,209.94
241.17293,205.48
241.17303,145.67
241.17313,99.37
241.17323,115.54
241.17333,98.30
241.17343,114.45
241.17353,103.67
241.17363,88.70
241.17373,74.93
241.17383,89.76
241.17393,72.83
241.17403,99.37
241.17413,102.59
241.17423,99.37
241.17433,117.70
241.17443,128.59
241.17453,132.97
241.17463,119.88
241.17473,127.50
241.17483,118.79
241.17493,87.63
241.17503,73.88
241.17513,87.63
241.17523,94.03
241.17533,81.27
241.17543,83.39
241.17553,70.73
241.17563,82.33
241.17573,95.09
241.17583,123.14
241.17593,107.97
241.17603,89.76
241.17613,74.93
241.17623,68.63
241.17633,61.30
241.17643,74.93
241.17653,78.10
241.17663,73.88
241.17673,68.63
241.17683,70.73
241.17693,98.30
241.17703,103.67
241.17713,91.89
241.17723,86.57
241.17733,99.37
241.17743,111.21
241.17753,109.05
241.17763,71.78
241.17773,70.73
241.17783,74.93
241.17793,81.27
241.17803,72.83
241.17813,91.89
241.17823,86.57
241.17833,80.21
241.17843,85.51
241.17853,89.76
241.17863,89.76
241.17873,80.21
241.17883,80.21
241.17893,86.57
241.17903,92.96
241.17913,116.26
241.17923,209.52
241.17933,229.59
241.17943,227.78
241.17953,165.89
241.17963,158.22
241.17973,130.78
241.17983,82.33
241.17993,92.96
241.18003,83.39
241.18013,75.99
241.18023,89.76
241.18033,115.54
241.18043,96.16
241.18053,106.89
241.18063,78.10
241.18073,88.70
241.18083,84.45
241.18093,88.70
241.18103,104.74
241.18113,74.93
241.18123,86.57
241.18133,84.45
241.18143,82.33
241.18153,83.39
241.18163,99.37
241.18173,98.30
241.18183,134.07
241.18193,97.23
241.18203,84.45
241.18213,74.93
241.18223,89.76
241.18233,86.57
241.18243,97.23
241.18253,91.89
241.18263,151.73
241.18273,126.41
241.18283,154.73
241.18293,147.21
241.18303,155.01
241.18313,372.62
241.18323,581.44
241.18333,639.15
241.18343,529.02
241.18353,392.13
241.18363,294.97
241.18373,248.13
241.18383,194.88
241.18393,98.30
241.18403,88.70
241.18413,100.45
241.18423,132.97
241.18433,146.19
241.18443,152.36
241.18453,106.89
241.18463,109.05
241.18473,91.89
241.18483,75.99
241.18493,69.68
241.18503,82.33
241.18513,105.82
241.18523,113.37
241.18533,125.32
241.18543,148.40
241.18553,153.06
241.18563,143.58
241.18573,161.56
241.18583,151.25
241.18593,140.65
241.18603,117.70
241.18613,112.29
241.18623,122.05
241.18633,102.59
241.18643,102.59
241.18653,83.39
241.18663,87.63
241.18673,113.37
241.18683,103.67
241.18693,160.64
241.18703,176.48
241.18713,389.34
241.18723,522.61
241.18733,496.96
241.18743,375.68
241.18753,221.92
241.18763,190.42
241.18773,149.58
241.18783,126.41
241.18793,120.96
241.18803,78.10
241.18813,79.16
241.18823,84.45
241.18833,70.73
241.18843,77.04
241.18853,56.09
241.18863,65.48
241.18873,70.73
241.18883,92.96
241.18893,61.30
241.18903,63.39
241.18913,81.27
241.18923,69.68
241.18933,95.09
241.18943,73.88
241.18953,77.04
241.18963,79.16
241.18973,92.96
241.18983,87.63
241.18993,87.63
241.19003,81.27
241.19013,69.68
241.19023,75.99
241.19033,64.44
241.19043,63.39
241.19053,42.63
241.19063,61.30
241.19073,55.05
241.19083,51.94
241.19093,75.99
241.19103,60.26
241.19113,65.48
241.19123,89.76
241.19133,77.04
241.19143,80.21
241.19153,65.48
241.19163,75.99
241.19173,88.70
241.19183,87.63
241.19193,81.27
241.19203,94.03
241.19213,84.45
241.19223,81.27
241.19233,77.04
241.19243,87.63
241.19253,79.16
241.19263,87.63
241.19273,62.35
241.19283,87.63
241.19293,89.76
241.19303,100.51
241.19313,96.16
241.19323,97.23
241.19333,109.43
241.19343,99.39
241.19353,78.48
241.19363,63.39
241.19373,158.40
241.19383,168.40
241.19393,251.06
241.19403,249.67
241.19413,219.69
241.19423,148.18
241.19433,96.16
241.19443,73.88
241.19453,71.78
241.19463,62.35
241.19473,86.57
241.19483,97.23
241.19493,79.16
241.19503,90.83
241.19513,78.10
241.19523,74.93
241.19533,59.21
241.19543,57.13
241.19553,60.26
241.19563,51.94
241.19573,81.27
241.19583,73.88
241.19593,83.39
241.19603,75.99
241.19613,83.39
241.19623,101.52
241.19633,96.16
241.19643,86.57
241.19653,92.96
241.19663,54.01
241.19673,83.39
241.19683,69.68
241.19693,70.73
241.19703,90.83
241.19713,82.33
241.19723,97.23
241.19733,103.67
241.19743,89.76
241.19753,98.30
241.19763,82.33
241.19773,68.63
241.19783,54.01
241.19793,68.63
241.19803,60.26
241.19813,65.48
241.19823,50.90
241.19833,81.27
241.19843,52.97
241.19853,137.36
241.19863,182.01
241.19873,203.80
241.19883,191.81
241.19893,176.76
241.19903,156.96
241.19913,88.70
241.19923,67.58
241.19933,65.48
241.19943,128.59
241.19953,174.81
241.19963,330.38
241.19973,363.00
241.19983,352.40
241.19993,301.38
241.20003,214.82
241.20013,151.11
241.20023,107.97
241.20033,90.83
241.20043,63.39
241.20053,73.88
241.20063,101.52
241.20073,91.89
241.20083,105.82
241.20093,128.59
241.20103,148.18
241.20113,327.73
241.20123,384.88
241.20133,475.91
241.20143,375.54
241.20153,292.32
241.20163,277.41
241.20173,239.35
241.20183,235.86
241.20193,222.90
241.20203,201.99
241.20213,163.52
241.20223,105.82
241.20233,91.89
241.20243,91.89
241.20253,85.51
241.20263,189.96
241.20273,229.73
241.20283,339.58
241.20293,375.82
241.20303,294.41
241.20313,220.53
241.20323,176.06
241.20333,113.37
241.20343,97.23
241.20353,115.54
241.20363,132.97
241.20373,172.97
241.20383,148.46
241.20393,199.62
241.20403,214.68
241.20413,174.53
241.20423,165.47
241.20433,146.51
241.20443,90.83
241.20453,114.45
241.20463,82.33
241.20473,86.57
241.20483,67.58
241.20493,65.48
241.20503,56.09
241.20513,73.88
241.20523,49.86
241.20533,63.39
241.20543,64.44
241.20553,48.83
241.20563,73.88
241.20573,59.21
241.20583,87.63
241.20593,96.16
241.20603,94.03
241.20613,113.37
241.20623,113.37
241.20633,137.36
241.20643,110.13
241.20653,104.74
241.20663,83.39
241.20673,75.99
241.20683,78.10
241.20693,69.68
241.20703,84.45
241.20713,80.02
241.20723,78.10
241.20733,81.27
241.20743,79.18
241.20753,76.53
241.20763,74.16
241.20773,71.93
241.20783,65.48
241.20793,86.57
241.20803,94.03
241.20813,102.59
241.20823,62.35
241.20833,77.04
241.20843,73.88
241.20853,79.16
241.20863,136.27
241.20873,143.98
241.20883,104.74
241.20893,106.89
241.20903,104.74
241.20913,158.40
241.20923,155.43
241.20933,200.46
241.20943,181.64
241.20953,153.20
241.20963,109.05
241.20973,107.97
241.20983,116.62
241.20993,101.52
241.21003,111.21
241.21013,82.33
241.21023,82.33
241.21033,82.33
241.21043,95.09
241.21053,91.89
241.21063,125.32
241.21073,131.88
241.21083,88.70
241.21093,97.23
241.21103,84.45
241.21113,89.76
241.21123,82.33
241.21133,89.76
241.21143,112.29
241.21153,128.59
241.21163,142.87
241.21173,126.41
241.21183,125.32
241.21193,89.76
241.21203,66.53
241.21213,62.35
241.21223,65.48
241.21233,56.09
241.21243,50.90
241.21253,86.57
241.21263,94.03
241.21273,118.79
241.21283,84.45
241.21293,87.63
241.21303,63.39
241.21313,82.33
241.21323,153.95
241.21333,146.37
241.21343,192.09
241.21353,189.44
241.21363,145.25
241.21373,92.96
241.21383,70.73
241.21393,57.13
241.21403,63.39
241.21413,62.35
241.21423,43.66
241.21433,94.03
241.21443,105.82
241.21453,110.13
241.21463,91.89
241.21473,98.30
241.21483,98.30
241.21493,74.93
241.21503,65.48
241.21513,52.97
241.21523,58.17
241.21533,62.35
241.21543,61.30
241.21553,75.99
241.21563,83.39
241.21573,104.74
241.21583,80.21
241.21593,83.39
241.21603,72.83
241.21613,69.68
241.21623,57.13
241.21633,67.58
241.21643,100.45
241.21653,131.88
241.21663,158.40
241.21673,189.96
241.21683,170.49
241.21693,160.73
241.21703,99.37
241.21713,87.63
241.21723,90.83
241.21733,106.89
241.21743,109.05
241.21753,115.54
241.21763,87.63
241.21773,86.57
241.21783,83.39
241.21793,102.59
241.21803,126.41
241.21813,139.56
241.21823,122.05
241.21833,125.32
241.21843,90.83
241.21853,82.33
241.21863,84.45
241.21873,87.63
241.21883,205.99
241.21893,218.16
241.21903,245.07
241.21913,268.21
241.21923,216.35
241.21933,183.17
241.21943,160.73
241.21953,85.51
241.21963,97.23
241.21973,79.16
241.21983,75.99
241.21993,70.73
241.22003,73.88
241.22013,75.99
241.22023,87.63
241.22033,101.52
241.22043,79.16
241.22053,91.89
241.22063,87.63
241.22073,94.03
241.22083,114.45
241.22093,116.62
241.22103,137.36
241.22113,109.05
241.22123,103.16
241.22133,130.78
241.22143,122.05
241.22153,146.09
241.22163,140.10
241.22173,162.26
241.22183,152.64
241.22193,143.44
241.22203,214.54
241.22213,280.47
241.22223,276.29
241.22233,258.17
241.22243,207.85
241.22253,167.84
241.22263,101.52
241.22273,99.37
241.22283,69.68
241.22293,64.44
241.22303,72.83
241.22313,89.76
241.22323,73.88
241.22333,86.57
241.22343,83.39
241.22353,115.54
241.22363,114.45
241.22373,85.51
241.22383,77.04
241.22393,91.89
241.22403,74.93
241.22413,83.39
241.22423,86.57
241.22433,97.23
241.22443,85.51
241.22453,103.67
241.22463,82.33
241.22473,85.51
241.22483,82.33
241.22493,259.87
241.22503,321.18
241.22513,535.85
241.22523,591.47
241.22533,505.88
241.22543,332.75
241.22553,239.91
241.22563,167.98
241.22573,95.09
241.22583,70.73
241.22593,79.16
241.22603,152.84
241.22613,158.08
241.22623,163.10
241.22633,158.92
241.22643,145.12
241.22653,82.33
241.22663,54.01
241.22673,69.68
241.22683,99.37
241.22693,81.27
241.22703,81.27
241.22713,75.99
241.22723,123.14
241.22733,202.54
241.22743,245.76
241.22753,504.77
241.22763,593.29
241.22773,600.54
241.22783,467.97
241.22793,337.77
241.22803,221.92
241.22813,146.79
241.22823,91.89
241.22833,77.04
241.22843,67.58
241.22853,75.99
241.22863,59.21
241.22873,63.39
241.22883,61.30
241.22893,43.66
241.22903,63.39
241.22913,68.63
241.22923,56.09
241.22933,104.74
241.22943,88.70
241.22953,116.62
241.22963,105.82
241.22973,195.66
241.22983,188.47
241.22993,223.32
241.23003,273.92
241.23013,240.60
241.23023,275.73
241.23033,1434.70
241.23043,2789.39
241.23053,3269.07
241.23063,2937.99
241.23073,2177.57
241.23083,1343.54
241.23093,819.81
241.23103,530.42
241.23113,363.00
241.23123,258.73
241.23133,197.95
241.23143,191.54
241.23153,148.46
241.23163,110.13
241.23173,83.39
241.23183,81.27
241.23193,371.04
241.23203,555.65
241.23213,1167.20
241.23223,1408.22
241.23233,1346.05
241.23243,931.61
241.23253,643.33
241.23263,406.49
241.23273,258.31
241.23283,169.51
241.23293,125.32
241.23303,111.21
241.23313,74.93
241.23323,112.29
241.23333,130.78
241.23343,143.72
241.23353,164.07
241.23363,147.35
241.23373,126.41
241.23383,104.74
241.23393,111.21
241.23403,142.61
241.23413,391.02
241.23423,527.21
241.23433,501.56
241.23443,429.21
241.23453,342.09
241.23463,246.18
241.23473,201.71
241.23483,168.53
241.23493,147.76
241.23503,141.21
241.23513,133.68
241.23523,117.93
241.23533,78.06
241.23543,96.74
241.23553,166.30
241.23563,621.31
241.23573,831.24
241.23583,792.21
241.23593,606.39
241.23603,398.68
241.23613,249.11
241.23623,189.17
241.23633,120.72
241.23643,143.58
241.23653,162.12
241.23663,156.41
241.23673,123.09
241.23683,100.65
241.23693,79.32
241.23703,83.22
241.23713,79.04
241.23723,60.50
241.23733,59.38
241.23743,71.51
241.23753,83.08
241.23763,83.22
241.23773,78.62
241.23783,62.87
241.23793,79.32
241.23803,100.37
241.23813,158.64
241.23823,166.58
241.23833,164.77
241.23843,198.37
241.23853,260.82
241.23863,254.68
241.23873,242.56
241.23883,204.08
241.23893,178.29
241.23903,162.68
241.23913,154.04
241.23923,118.77
241.23933,105.80
241.23943,137.17
241.23953,172.30
241.23963,196.97
241.23973,178.01
241.23983,164.63
241.23993,197.95
241.24003,182.20
241.24013,173.55
241.24023,169.09
241.24033,150.97
241.24043,115.28
241.24053,103.02
241.24063,129.64
241.24073,97.44
241.24083,81.13
241.24093,103.99
241.24103,110.96
241.24113,128.67
241.24123,137.45
241.24133,123.79
241.24143,126.71
241.24153,130.48
241.24163,134.80
241.24173,115.00
241.24183,98.00
241.24193,91.03
241.24203,106.08
241.24213,97.58
241.24223,94.37
241.24233,93.12
241.24243,78.62
241.24253,77.37
241.24263,87.96
241.24273,85.45
241.24283,93.68
241.24293,83.36
241.24303,94.79
241.24313,107.20
241.24323,73.05
241.24333,82.25
241.24343,81.55
241.24353,71.79
241.24363,75.14
241.24373,76.95
241.24383,69.70
241.24393,195.02
241.24403,456.26
241.24413,592.73
241.24423,527.35
241.24433,388.93
241.24443,266.67
241.24453,198.09
241.24463,137.03
241.24473,107.06
241.24483,94.10
241.24493,110.13
241.24503,99.53
241.24513,147.07
241.24523,220.67
241.24533,233.49
241.24543,215.93
241.24553,172.02
241.24563,136.89
241.24573,101.34
241.24583,85.45
241.24593,103.16
241.24603,111.38
241.24613,296.36
241.24623,427.26
241.24633,488.46
241.24643,378.05
241.24653,307.24
241.24663,197.11
241.24673,137.73
241.24683,94.23
241.24693,76.11
241.24703,84.48
241.24713,88.66
241.24723,80.15
241.24733,74.86
241.24743,64.12
241.24753,68.17
241.24763,74.58
241.24773,58.97
241.24783,65.52
241.24793,69.42
241.24803,80.43
241.24813,96.19
241.24823,69.42
241.24833,57.99
241.24843,41.54
241.24853,39.73
241.24863,61.48
241.24873,94.37
241.24883,153.76
241.24893,169.51
241.24903,188.05
241.24913,154.73
241.24923,157.94
241.24933,166.03
241.24943,148.60
241.24953,175.50
241.24963,151.81
241.24973,117.37
241.24983,122.67
241.24993,86.57
241.25003,102.32
241.25013,123.23
241.25023,117.93
241.25033,105.39
241.25043,73.18
241.25053,73.88
241.25063,85.03
241.25073,68.86
241.25083,69.84
241.25093,59.52
241.25103,56.74
241.25113,70.26
241.25123,52.83
241.25133,56.46
241.25143,72.77
241.25153,90.19
241.25163,81.55
241.25173,78.20
241.25183,57.29
241.25193,49.63
241.25203,36.10
241.25213,41.82
241.25223,110.68
241.25233,425.59
241.25243,600.95
241.25253,667.17
241.25263,531.67
241.25273,352.96
241.25283,265.98
241.25293,164.49
241.25303,129.36
241.25313,103.02
241.25323,83.64
241.25333,75.69
241.25343,45.31
241.25353,52.41
241.25363,74.86
241.25373,121.28
241.25383,146.23
241.25393,184.57
241.25403,168.26
241.25413,182.47
241.25423,188.61
241.25433,172.30
241.25443,141.91
241.25453,102.32
241.25463,91.03
241.25473,87.40
241.25483,63.71
241.25493,93.68
241.25503,239.07
241.25513,215.37
241.25523,205.20
241.25533,201.85
241.25543,141.49
241.25553,128.53
241.25563,97.72
241.25573,89.22
241.25583,72.49
241.25593,78.20
241.25603,99.95
241.25613,115.84
241.25623,100.65
241.25633,72.91
241.25643,52.14
241.25653,52.69
241.25663,75.97
241.25673,72.35
241.25683,56.32
241.25693,52.14
241.25703,75.28
241.25713,96.88
241.25723,124.21
241.25733,96.88
241.25743,79.04
241.25753,87.54
241.25763,85.17
241.25773,63.98
241.25783,83.78
241.25793,71.79
241.25803,95.77
241.25813,106.08
241.25823,104.13
241.25833,117.24
241.25843,64.96
241.25853,65.52
241.25863,62.31
241.25873,59.80
241.25883,48.51
241.25893,78.76
241.25903,106.22
241.25913,84.62
241.25923,83.64
241.25933,58.97
241.25943,48.09
241.25953,46.14
241.25963,49.91
241.25973,50.60
241.25983,59.94
241.25993,83.50
241.26003,83.50
241.26013,89.91
241.26023,96.88
241.26033,109.01
241.26043,89.63
241.26053,93.54
241.26063,114.17
241.26073,84.06
241.26083,86.15
241.26093,65.80
241.26103,71.79
241.26113,61.34
241.26123,82.52
241.26133,89.77
241.26143,65.66
241.26153,58.97
241.26163,72.07
241.26173,73.18
241.26183,71.09
241.26193,54.09
241.26203,53.81
241.26213,70.82
241.26223,78.20
241.26233,66.49
241.26243,68.72
241.26253,77.04
241.26263,78.10
241.26273,82.33
241.26283,84.45
241.26293,74.93
241.26303,69.68
241.26313,74.93
241.26323,70.73
241.26333,57.13
241.26343,69.68
241.26353,57.13
241.26363,64.44
241.26373,38.52
241.26383,47.79
241.26393,61.30
241.26403,57.13
241.26413,72.83
241.26423,169.60
241.26433,196.83
241.26443,247.71
241.26453,277.68
241.26463,260.54
241.26473,204.50
241.26483,154.73
241.26493,96.16
241.26503,88.70
241.26513,95.09
241.26523,90.83
241.26533,87.63
241.26543,83.39
241.26553,85.51
241.26563,78.10
241.26573,65.48
241.26583,74.93
241.26593,63.39
241.26603,61.30
241.26613,74.93
241.26623,45.73
241.26633,47.79
241.26643,40.57
241.26653,50.90
241.26663,54.01
241.26673,66.53
241.26683,77.04
241.26693,74.93
241.26703,63.39
241.26713,54.01
241.26723,67.58
241.26733,61.30
241.26743,98.30
241.26753,101.52
241.26763,117.70
241.26773,107.97
241.26783,98.30
241.26793,98.30
241.26803,70.73
241.26813,49.86
241.26823,43.66
241.26833,57.13
241.26843,59.21
241.26853,65.48
241.26863,105.82
241.26873,112.29
241.26883,136.27
241.26893,137.36
241.26903,91.89
241.26913,78.10
241.26923,83.39
241.26933,77.04
241.26943,74.93
241.26953,71.78
241.26963,70.73
241.26973,54.01
241.26983,60.26
241.26993,74.93
241.27003,68.63
241.27013,69.68
241.27023,57.13
241.27033,59.21
241.27043,50.90
241.27053,57.13
241.27063,63.39
241.27073,84.45
241.27083,87.63
241.27093,87.63
241.27103,72.83
241.27113,62.35
241.27123,71.78
241.27133,55.05
241.27143,45.73
241.27153,57.13
241.27163,72.83
241.27173,73.88
241.27183,94.03
241.27193,86.57
241.27203,84.45
241.27213,72.83
241.27223,67.58
241.27233,40.57
241.27243,64.44
241.27253,150.62
241.27263,139.40
241.27273,177.32
241.27283,142.88
241.27293,137.36
241.27303,102.59
241.27313,85.51
241.27323,75.99
241.27333,52.97
241.27343,70.73
241.27353,75.99
241.27363,89.76
241.27373,96.16
241.27383,113.37
241.27393,91.89
241.27403,100.45
241.27413,83.39
241.27423,73.88
241.27433,73.88
241.27443,78.10
241.27453,80.21
241.27463,92.96
241.27473,109.05
241.27483,134.07
241.27493,141.77
241.27503,407.28
241.27513,1353.85
241.27523,4228.70
241.27533,5180.66
241.27543,4617.07
241.27553,3209.82
241.27563,1842.87
241.27573,1025.98
241.27583,580.46
241.27593,311.70
241.27603,201.71
241.27613,186.94
241.27623,137.03
241.27633,93.82
241.27643,58.13
241.27653,50.88
241.27663,56.74
241.27673,56.18
241.27683,73.18
241.27693,87.96
241.27703,97.44
241.27713,84.06
241.27723,106.36
241.27733,282.15
241.27743,350.45
241.27753,354.49
241.27763,282.84
241.27773,207.71
241.27783,132.85
241.27793,95.77
241.27803,101.76
241.27813,196.14
241.27823,302.08
241.27833,304.03
241.27843,251.76
241.27853,210.49
241.27863,173.83
241.27873,130.06
241.27883,87.13
241.27893,60.08
241.27903,63.15
241.27913,63.85
241.27923,100.23
241.27933,142.19
241.27943,142.47
241.27953,115.70
241.27963,91.59
241.27973,92.28
241.27983,76.81
241.27993,62.17
241.28003,77.51
241.28013,87.82
241.28023,90.33
241.28033,107.34
241.28043,97.86
241.28053,92.98
241.28063,94.93
241.28073,79.60
241.28083,73.05
241.28093,54.92
241.28103,40.29
241.28113,59.80
241.28123,78.48
241.28133,66.77
241.28143,67.47
241.28153,61.34
241.28163,45.72
241.28173,53.25
241.28183,63.43
241.28193,63.71
241.28203,60.50
241.28213,69.70
241.28223,69.70
241.28233,73.60
241.28243,39.03
241.28253,26.07
241.28263,39.03
241.28273,62.87
241.28283,69.98
241.28293,58.27
241.28303,63.71
241.28313,90.47
241.28323,198.78
241.28333,232.66
241.28343,246.04
241.28353,181.64
241.28363,141.91
241.28373,112.36
241.28383,98.70
241.28393,95.63
241.28403,98.00
241.28413,115.00
241.28423,119.33
241.28433,121.00
241.28443,106.92
241.28453,124.62
241.28463,110.13
241.28473,109.99
241.28483,114.31
241.28493,98.00
241.28503,146.37
241.28513,170.49
241.28523,188.33
241.28533,144.56
241.28543,125.60
241.28553,102.46
241.28563,95.77
241.28573,110.40
241.28583,128.67
241.28593,144.42
241.28603,182.61
241.28613,264.16
241.28623,299.15
241.28633,277.96
241.28643,203.38
241.28653,147.76
241.28663,140.93
241.28673,117.24
241.28683,104.69
241.28693,85.17
241.28703,82.80
241.28713,113.19
241.28723,97.44
241.28733,87.68
241.28743,79.32
241.28753,68.45
241.28763,91.17
241.28773,81.83
241.28783,71.65
241.28793,82.39
241.28803,65.10
241.28813,65.52
241.28823,73.74
241.28833,70.40
241.28843,83.64
241.28853,97.86
241.28863,75.28
241.28873,83.36
241.28883,96.46
241.28893,86.71
241.28903,71.37
241.28913,74.72
241.28923,75.55
241.28933,83.08
241.28943,80.02
241.28953,63.43
241.28963,71.93
241.28973,80.15
241.28983,73.88
241.28993,68.63
241.29003,81.27
241.29013,77.04
241.29023,64.44
241.29033,373.60
241.29043,510.34
241.29053,1033.51
241.29063,1185.32
241.29073,1097.64
241.29083,795.56
241.29093,539.34
241.29103,314.63
241.29113,207.29
241.29123,144.56
241.29133,66.53
241.29143,51.94
241.29153,55.05
241.29163,65.48
241.29173,66.53
241.29183,54.01
241.29193,58.17
241.29203,57.13
241.29213,52.97
241.29223,65.48
241.29233,71.78
241.29243,74.93
241.29253,103.67
241.29263,176.35
241.29273,193.77
241.29283,242.70
241.29293,210.63
241.29303,166.16
241.29313,144.00
241.29323,125.32
241.29333,92.96
241.29343,81.27
241.29353,71.78
241.29363,85.51
241.29373,72.83
241.29383,84.45
241.29393,59.21
241.29403,100.45
241.29413,74.93
241.29423,113.37
241.29433,89.76
241.29443,96.16
241.29453,84.45
241.29463,79.16
241.29473,74.93
241.29483,52.97
241.29493,58.17
241.29503,60.26
241.29513,62.35
241.29523,74.93
241.29533,56.09
241.29543,80.21
241.29553,71.78
241.29563,64.44
241.29573,66.53
241.29583,83.39
241.29593,90.83
241.29603,78.10
241.29613,84.45
241.29623,58.17
241.29633,59.21
241.29643,95.09
241.29653,97.23
241.29663,85.51
241.29673,89.76
241.29683,106.89
241.29693,110.13
241.29703,116.62
241.29713,118.79
241.29723,71.78
241.29733,86.57
241.29743,70.73
241.29753,65.48
241.29763,59.21
241.29773,75.99
241.29783,66.53
241.29793,66.53
241.29803,68.63
241.29813,58.17
241.29823,52.97
241.29833,64.44
241.29843,77.04
241.29853,112.29
241.29863,112.29
241.29873,106.89
241.29883,106.89
241.29893,85.51
241.29903,81.27
241.29913,95.09
241.29923,175.23
241.29933,162.12
241.29943,175.92
241.29953,192.93
241.29963,167.98
241.29973,144.28
241.29983,99.37
241.29993,114.45
241.30003,99.37
241.30013,117.70
241.30023,88.70
241.30033,70.73
241.30043,77.04
241.30053,71.78
241.30063,54.01
241.30073,63.39
241.30083,56.09
241.30093,64.44
241.30103,48.83
241.30113,44.70
241.30123,59.21
241.30133,74.93
241.30143,77.04
241.30153,72.83
241.30163,75.99
241.30173,71.78
241.30183,77.04
241.30193,91.89
241.30203,106.89
241.30213,104.74
241.30223,116.62
241.30233,126.16
241.30243,113.19
241.30253,97.02
241.30263,96.16
241.30273,122.05
241.30283,142.87
241.30293,156.96
241.30303,145.25
241.30313,145.25
241.30323,104.74
241.30333,82.33
241.30343,59.21
241.30353,67.58
241.30363,58.17
241.30373,63.39
241.30383,52.97
241.30393,54.01
241.30403,65.48
241.30413,62.35
241.30423,88.70
241.30433,90.83
241.30443,118.79
241.30453,106.89
241.30463,78.10
241.30473,83.39
241.30483,149.51
241.30493,162.40
241.30503,204.22
241.30513,229.31
241.30523,241.16
241.30533,193.63
241.30543,164.63
241.30553,119.88
241.30563,83.39
241.30573,102.59
241.30583,80.21
241.30593,99.37
241.30603,135.17
241.30613,140.67
241.30623,111.21
241.30633,126.41
241.30643,99.37
241.30653,95.09
241.30663,78.10
241.30673,60.26
241.30683,67.58
241.30693,81.27
241.30703,89.76
241.30713,72.83
241.30723,97.23
241.30733,103.67
241.30743,130.78
241.30753,131.88
241.30763,135.17
241.30773,120.96
241.30783,99.37
241.30793,86.57
241.30803,215.22
241.30813,570.56
241.30823,2503.76
241.30833,3226.27
241.30843,3136.50
241.30853,2299.40
241.30863,1361.10
241.30873,813.54
241.30883,501.42
241.30893,308.77
241.30903,193.35
241.30913,98.30
241.30923,73.88
241.30933,52.97
241.30943,52.97
241.30953,44.70
241.30963,47.79
241.30973,102.59
241.30983,116.62
241.30993,111.21
241.31003,100.45
241.31013,81.27
241.31023,69.68
241.31033,49.86
241.31043,94.03
241.31053,89.76
241.31063,65.48
241.31073,83.39
241.31083,81.27
241.31093,111.21
241.31103,131.88
241.31113,112.29
241.31123,112.29
241.31133,106.89
241.31143,107.97
241.31153,150.62
241.31163,127.50
241.31173,118.79
241.31183,81.27
241.31193,64.44
241.31203,62.35
241.31213,55.05
241.31223,59.21
241.31233,68.63
241.31243,59.21
241.31253,95.09
241.31263,67.58
241.31273,72.83
241.31283,97.23
241.31293,89.76
241.31303,117.70
241.31313,89.76
241.31323,72.83
241.31333,65.48
241.31343,68.63
241.31353,109.05
241.31363,136.27
241.31373,140.65
241.31383,162.82
241.31393,167.28
241.31403,130.78
241.31413,205.99
241.31423,250.78
241.31433,363.83
241.31443,389.20
241.31453,361.46
241.31463,276.29
241.31473,204.92
241.31483,139.56
241.31493,154.32
241.31503,205.20
241.31513,205.20
241.31523,193.07
241.31533,153.76
241.31543,111.21
241.31553,84.45
241.31563,77.04
241.31573,74.93
241.31583,69.68
241.31593,75.99
241.31603,74.93
241.31613,80.21
241.31623,90.83
241.31633,67.58
241.31643,77.23
241.31653,67.89
241.31663,52.97
241.31673,49.07
241.31683,65.48
241.31693,66.53
241.31703,58.69
241.31713,50.74
241.31723,73.88
241.31733,105.82
241.31743,92.96
241.31753,105.82
241.31763,104.74
241.31773,95.09
241.31783,87.63
241.31793,72.83
241.31803,81.27
241.31813,136.27
241.31823,102.59
241.31833,124.23
241.31843,112.29
241.31853,73.88
241.31863,62.35
241.31873,82.33
241.31883,60.26
241.31893,63.39
241.31903,62.35
241.31913,102.59
241.31923,123.14
241.31933,137.36
241.31943,142.33
241.31953,109.05
241.31963,78.10
241.31973,84.45
241.31983,62.35
241.31993,58.17
241.32003,62.35
241.32013,69.68
241.32023,60.26
241.32033,68.63
241.32043,101.52
241.32053,179.74
241.32063,207.29
241.32073,268.21
241.32083,255.66
241.32093,205.34
241.32103,141.91
241.32113,92.96
241.32123,83.39
241.32133,63.39
241.32143,74.93
241.32153,66.53
241.32163,62.35
241.32173,79.16
241.32183,117.70
241.32193,148.40
241.32203,149.44
241.32213,141.21
241.32223,123.14
241.32233,119.88
241.32243,74.93
241.32253,80.21
241.32263,87.63
241.32273,112.29
241.32283,150.62
241.32293,144.98
241.32303,218.58
241.32313,225.69
241.32323,173.83
241.32333,152.50
241.32343,71.78
241.32353,64.44
241.32363,86.57
241.32373,68.63
241.32383,67.58
241.32393,62.35
241.32403,65.48
241.32413,64.44
241.32423,73.88
241.32433,81.27
241.32443,78.10
241.32453,65.48
241.32463,59.21
241.32473,62.35
241.32483,63.39
241.32493,66.53
241.32503,78.10
241.32513,97.23
241.32523,135.17
241.32533,113.37
241.32543,104.74
241.32553,107.97
241.32563,114.45
241.32573,200.24
241.32583,232.94
241.32593,356.03
241.32603,389.76
241.32613,354.77
241.32623,273.22
241.32633,214.26
241.32643,225.27
241.32653,183.59
241.32663,184.57
241.32673,188.75
241.32683,183.45
241.32693,168.12
241.32703,81.27
241.32713,85.51
241.32723,74.93
241.32733,68.63
241.32743,83.39
241.32753,89.76
241.32763,111.21
241.32773,98.30
241.32783,87.63
241.32793,79.16
241.32803,79.16
241.32813,56.09
241.32823,45.73
241.32833,59.21
241.32843,55.05
241.32853,62.35
241.32863,51.94
241.32873,74.93
241.32883,129.69
241.32893,139.68
241.32903,178.15
241.32913,149.99
241.32923,148.32
241.32933,85.51
241.32943,85.51
241.32953,70.73
241.32963,77.04
241.32973,143.98
241.32983,141.63
241.32993,184.57
241.33003,158.08
241.33013,94.03
241.33023,94.03
241.33033,71.78
241.33043,83.39
241.33053,81.83
241.33063,78.48
241.33073,70.95
241.33083,78.34
241.33093,68.03
241.33103,69.14
241.33113,63.01
241.33123,79.32
241.33133,101.52
241.33143,111.21
241.33153,96.16
241.33163,100.45
241.33173,80.21
241.33183,81.27
241.33193,83.39
241.33203,79.16
241.33213,79.16
241.33223,162.87
241.33233,178.57
241.33243,227.08
241.33253,249.25
241.33263,237.68
241.33273,184.98
241.33283,144.14
241.33293,96.16
241.33303,109.05
241.33313,115.54
241.33323,89.76
241.33333,70.73
241.33343,95.09
241.33353,92.96
241.33363,113.37
241.33373,270.64
241.33383,263.74
241.33393,297.76
241.33403,329.96
241.33413,319.64
241.33423,275.18
241.33433,233.77
241.33443,194.74
241.33453,143.02
241.33463,126.41
241.33473,97.23
241.33483,122.05
241.33493,107.97
241.33503,106.89
241.33513,106.89
241.33523,74.93
241.33533,67.58
241.33543,59.21
241.33553,48.83
241.33563,33.39
241.33573,51.94
241.33583,60.26
241.33593,71.78
241.33603,107.97
241.33613,367.21
241.33623,568.19
241.33633,1089.55
241.33643,1245.12
241.33653,1097.22
241.33663,852.85
241.33673,581.58
241.33683,435.49
241.33693,507.42
241.33703,848.25
241.33713,983.47
241.33723,1173.05
241.33733,1348.14
241.33743,1232.02
241.33753,1054.98
241.33763,738.96
241.33773,476.61
241.33783,271.41
241.33793,182.06
241.33803,115.54
241.33813,112.29
241.33823,106.89
241.33833,103.67
241.33843,112.29
241.33853,116.62
241.33863,118.79
241.33873,142.87
241.33883,102.59
241.33893,90.83
241.33903,81.27
241.33913,70.73
241.33923,68.63
241.33933,64.44
241.33943,77.04
241.33953,107.97
241.33963,116.62
241.33973,99.37
241.33983,111.21
241.33993,78.10
241.34003,67.58
241.34013,85.51
241.34023,75.99
241.34033,74.93
241.34043,89.76
241.34053,258.68
241.34063,408.02
241.34073,975.66
241.34083,1206.93
241.34093,1083.00
241.34103,790.96
241.34113,522.33
241.34123,330.52
241.34133,198.23
241.34143,166.58
241.34153,107.97
241.34163,87.63
241.34173,80.21
241.34183,64.44
241.34193,81.27
241.34203,617.77
241.34213,850.34
241.34223,1564.21
241.34233,1738.60
241.34243,1585.12
241.34253,1123.42
241.34263,726.00
241.34273,403.84
241.34283,269.32
241.34293,173.97
241.34303,160.73
241.34313,123.14
241.34323,101.52
241.34333,92.96
241.34343,132.97
241.34353,141.21
241.34363,151.73
241.34373,157.52
241.34383,224.29
241.34393,205.20
241.34403,161.84
241.34413,89.76
241.34423,85.51
241.34433,57.13
241.34443,45.73
241.34453,54.64
241.34463,74.58
241.34473,99.37
241.34483,105.53
241.34493,77.04
241.34503,98.70
241.34513,80.15
241.34523,68.72
241.34533,64.44
241.34543,55.05
241.34553,63.39
241.34563,70.73
241.34573,59.21
241.34583,42.63
241.34593,50.90
241.34603,59.21
241.34613,52.97
241.34623,58.17
241.34633,71.78
241.34643,66.53
241.34653,142.88
241.34663,2827.59
241.34673,5242.69
241.34683,6083.00
241.34693,4967.66
241.34703,3205.78
241.34713,1796.45
241.34723,981.10
241.34733,582.97
241.34743,323.83
241.34753,200.46
241.34763,146.93
241.34773,131.88
241.34783,117.70
241.34793,100.45
241.34803,92.96
241.34813,101.52
241.34823,70.73
241.34833,81.27
241.34843,70.73
241.34853,66.53
241.34863,106.89
241.34873,94.03
241.34883,106.89
241.34893,70.73
241.34903,103.67
241.34913,104.74
241.34923,94.03
241.34933,118.79
241.34943,81.27
241.34953,87.63
241.34963,58.17
241.34973,58.17
241.34983,55.05
241.34993,50.90
241.35003,68.63
241.35013,85.51
241.35023,102.59
241.35033,107.97
241.35043,94.03
241.35053,64.44
241.35063,68.63
241.35073,54.01
241.35083,40.57
241.35093,51.94
241.35103,42.63
241.35113,59.21
241.35123,56.09
241.35133,56.09
241.35143,41.60
241.35153,55.05
241.35163,46.76
241.35173,59.21
241.35183,85.51
241.35193,120.96
241.35203,166.72
241.35213,421.96
241.35223,474.52
241.35233,487.76
241.35243,361.74
241.35253,235.86
241.35263,155.71
241.35273,92.96
241.35283,107.97
241.35293,118.79
241.35303,192.24
241.35313,184.29
241.35323,167.14
241.35333,174.39
241.35343,169.09
241.35353,144.28
241.35363,107.97
241.35373,104.74
241.35383,131.88
241.35393,166.23
241.35403,164.35
241.35413,175.78
241.35423,146.19
241.35433,132.97
241.35443,149.51
241.35453,156.96
241.35463,173.97
241.35473,150.41
241.35483,95.09
241.35493,92.96
241.35503,106.89
241.35513,142.87
241.35523,218.86
241.35533,1800.49
241.35543,2895.48
241.35553,3274.09
241.35563,2536.80
241.35573,1686.32
241.35583,1018.32
241.35593,602.91
241.35603,366.76
241.35613,249.39
241.35623,197.81
241.35633,158.08
241.35643,145.08
241.35653,88.70
241.35663,58.17
241.35673,72.83
241.35683,56.09
241.35693,75.99
241.35703,70.73
241.35713,109.05
241.35723,96.16
241.35733,137.36
241.35743,119.88
241.35753,116.62
241.35763,127.50
241.35773,145.08
241.35783,144.56
241.35793,193.91
241.35803,201.15
241.35813,193.35
241.35823,148.32
241.35833,95.09
241.35843,96.16
241.35853,109.05
241.35863,119.19
241.35873,101.52
241.35883,122.05
241.35893,111.66
241.35903,107.48
241.35913,92.56
241.35923,153.48
241.35933,166.58
241.35943,177.46
241.35953,194.60
241.35963,102.59
241.35973,115.54
241.35983,157.29
241.35993,144.56
241.36003,94.03
241.36013,99.37
241.36023,80.21
241.36033,101.52
241.36043,123.14
241.36053,140.67
241.36063,144.70
241.36073,148.74
241.36083,113.37
241.36093,106.89
241.36103,114.45
241.36113,145.25
241.36123,453.61
241.36133,615.73
241.36143,706.20
241.36153,580.74
241.36163,414.71
241.36173,273.64
241.36183,189.86
241.36193,99.37
241.36203,74.93
241.36213,92.96
241.36223,112.29
241.36233,98.30
241.36243,105.82
241.36253,72.83
241.36263,90.83
241.36273,78.10
241.36283,111.21
241.36293,118.79
241.36303,118.79
241.36313,117.70
241.36323,91.89
241.36333,72.83
241.36343,63.39
241.36353,49.86
241.36363,81.27
241.36373,98.30
241.36383,118.79
241.36393,112.29
241.36403,104.74
241.36413,79.16
241.36423,75.99
241.36433,65.48
241.36443,71.78
241.36453,90.83
241.36463,70.73
241.36473,83.39
241.36483,74.93
241.36493,63.39
241.36503,79.16
241.36513,73.88
241.36523,80.21
241.36533,86.57
241.36543,78.10
241.36553,60.26
241.36563,68.63
241.36573,84.45
241.36583,68.63
241.36593,98.30
241.36603,74.93
241.36613,77.04
241.36623,57.13
241.36633,150.62
241.36643,194.52
241.36653,190.00
241.36663,186.24
241.36673,163.93
241.36683,152.92
241.36693,436.32
241.36703,602.35
241.36713,602.49
241.36723,477.86
241.36733,401.33
241.36743,326.20
241.36753,266.25
241.36763,193.21
241.36773,140.38
241.36783,83.39
241.36793,70.73
241.36803,90.83
241.36813,129.69
241.36823,140.65
241.36833,187.63
241.36843,220.67
241.36853,239.21
241.36863,188.19
241.36873,140.10
241.36883,91.89
241.36893,101.52
241.36903,85.51
241.36913,56.09
241.36923,73.88
241.36933,50.90
241.36943,49.86
241.36953,82.33
241.36963,69.68
241.36973,66.53
241.36983,71.78
241.36993,73.88
241.37003,84.45
241.37013,82.33
241.37023,64.44
241.37033,71.78
241.37043,78.10
241.37053,75.99
241.37063,78.10
241.37073,83.39
241.37083,81.27
241.37093,73.88
241.37103,104.74
241.37113,70.73
241.37123,67.58
241.37133,54.01
241.37143,41.60
241.37153,52.97
241.37163,51.94
241.37173,82.33
241.37183,88.70
241.37193,98.30
241.37203,87.63
241.37213,92.96
241.37223,74.93
241.37233,75.99
241.37243,92.96
241.37253,91.45
241.37263,126.99
241.37273,151.81
241.37283,147.07
241.37293,113.37
241.37303,107.34
241.37313,80.02
241.37323,67.58
241.37333,62.35
241.37343,66.53
241.37353,88.70
241.37363,97.23
241.37373,107.97
241.37383,146.19
241.37393,440.64
241.37403,2000.95
241.37413,2535.83
241.37423,2417.20
241.37433,1671.41
241.37443,1086.20
241.37453,607.92
241.37463,345.85
241.37473,228.89
241.37483,155.43
241.37493,85.51
241.37503,60.26
241.37513,70.73
241.37523,107.97
241.37533,60.26
241.37543,100.45
241.37553,96.16
241.37563,86.57
241.37573,62.35
241.37583,70.73
241.37593,131.88
241.37603,155.99
241.37613,261.38
241.37623,412.90
241.37633,558.30
241.37643,554.39
241.37653,478.56
241.37663,368.71
241.37673,224.99
241.37683,154.59
241.37693,147.29
241.37703,146.51
241.37713,158.78
241.37723,155.85
241.37733,100.45
241.37743,71.78
241.37753,67.58
241.37763,65.48
241.37773,97.23
241.37783,152.84
241.37793,160.17
241.37803,216.35
241.37813,208.96
241.37823,159.06
241.37833,100.45
241.37843,73.88
241.37853,102.59
241.37863,87.63
241.37873,85.51
241.37883,127.50
241.37893,110.13
241.37903,119.88
241.37913,131.88
241.37923,152.84
241.37933,147.21
241.37943,212.91
241.37953,220.67
241.37963,287.44
241.37973,280.33
241.37983,200.32
241.37993,195.58
241.38003,190.28
241.38013,189.31
241.38023,158.78
241.38033,118.79
241.38043,120.96
241.38053,130.78
241.38063,101.52
241.38073,92.96
241.38083,83.39
241.38093,94.03
241.38103,74.93
241.38113,98.30
241.38123,94.03
241.38133,79.16
241.38143,95.09
241.38153,113.37
241.38163,137.36
241.38173,120.96
241.38183,107.97
241.38193,87.63
241.38203,65.48
241.38213,73.88
241.38223,152.84
241.38233,143.72
241.38243,191.81
241.38253,198.23
241.38263,282.70
241.38273,755.13
241.38283,907.35
241.38293,898.43
241.38303,688.22
241.38313,468.24
241.38323,264.30
241.38333,164.21
241.38343,84.45
241.38353,73.88
241.38363,55.05
241.38373,72.83
241.38383,84.45
241.38393,85.51
241.38403,89.76
241.38413,82.33
241.38423,78.10
241.38433,47.79
241.38443,60.26
241.38453,56.09
241.38463,75.99
241.38473,98.30
241.38483,99.37
241.38493,118.79
241.38503,114.45
241.38513,163.99
241.38523,162.40
241.38533,156.41
241.38543,130.78
241.38553,98.30
241.38563,98.30
241.38573,79.16
241.38583,75.99
241.38593,80.21
241.38603,69.68
241.38613,59.21
241.38623,63.39
241.38633,79.16
241.38643,46.76
241.38653,49.91
241.38663,85.17
241.38673,92.56
241.38683,94.79
241.38693,79.18
241.38703,90.89
241.38713,110.27
241.38723,98.42
241.38733,81.27
241.38743,58.17
241.38753,68.63
241.38763,69.68
241.38773,68.63
241.38783,58.17
241.38793,67.58
241.38803,88.70
241.38813,131.88
241.38823,142.87
241.38833,145.08
241.38843,110.13
241.38853,135.17
241.38863,97.23
241.38873,73.88
241.38883,78.10
241.38893,95.09
241.38903,124.23
241.38913,115.54
241.38923,92.96
241.38933,86.57
241.38943,81.27
241.38953,59.21
241.38963,70.73
241.38973,68.63
241.38983,49.86
241.38993,79.16
241.39003,107.97
241.39013,128.59
241.39023,150.13
241.39033,196.81
241.39043,171.32
241.39053,180.10
241.39063,205.48
241.39073,168.26
241.39083,128.59
241.39093,127.50
241.39103,122.05
241.39113,100.45
241.39123,183.14
241.39133,191.68
241.39143,248.27
241.39153,327.87
241.39163,256.36
241.39173,206.03
241.39183,147.21
241.39193,85.51
241.39203,83.39
241.39213,64.44
241.39223,69.68
241.39233,60.26
241.39243,50.90
241.39253,46.76
241.39263,50.90
241.39273,71.78
241.39283,70.73
241.39293,72.83
241.39303,44.70
241.39313,73.88
241.39323,68.63
241.39333,58.17
241.39343,81.27
241.39353,67.58
241.39363,88.70
241.39373,71.78
241.39383,74.93
241.39393,75.99
241.39403,82.33
241.39413,87.63
241.39423,87.63
241.39433,66.53
241.39443,66.53
241.39453,86.57
241.39463,87.63
241.39473,99.37
241.39483,160.64
241.39493,167.42
241.39503,212.31
241.39513,289.39
241.39523,288.42
241.39533,247.02
241.39543,164.77
241.39553,120.96
241.39563,97.23
241.39573,84.45
241.39583,71.78
241.39593,68.63
241.39603,84.45
241.39613,61.30
241.39623,83.39
241.39633,70.73
241.39643,85.51
241.39653,72.83
241.39663,61.30
241.39673,61.30
241.39683,70.73
241.39693,60.26
241.39703,58.17
241.39713,59.21
241.39723,50.90
241.39733,97.23
241.39743,140.67
241.39753,138.46
241.39763,128.59
241.39773,120.96
241.39783,95.09
241.39793,90.83
241.39803,75.99
241.39813,90.83
241.39823,107.97
241.39833,137.36
241.39843,124.23
241.39853,98.30
241.39863,102.59
241.39873,96.16
241.39883,107.97
241.39893,101.52
241.39903,88.70
241.39913,82.33
241.39923,67.58
241.39933,70.73
241.39943,77.04
241.39953,62.35
241.39963,82.33
241.39973,51.94
241.39983,71.78
241.39993,68.63
241.40003,85.51
241.40013,103.67
241.40023,83.39
241.40033,75.99
241.40043,62.35
241.40053,77.04
241.40063,45.73
241.40073,54.37
241.40083,67.33
241.40093,83.39
241.40103,70.26
241.40113,71.93
241.40123,63.39
241.40133,46.76
241.40143,54.01
241.40153,64.44
241.40163,98.30
241.40173,118.79
241.40183,136.27
241.40193,112.29
241.40203,96.16
241.40213,84.45
241.40223,71.78
241.40233,77.04
241.40243,71.78
241.40253,85.51
241.40263,91.89
241.40273,75.99
241.40283,63.39
241.40293,58.17
241.40303,63.39
241.40313,64.44
241.40323,65.48
241.40333,59.21
241.40343,50.90
241.40353,94.03
241.40363,130.78
241.40373,140.67
241.40383,101.52
241.40393,85.51
241.40403,85.51
241.40413,75.99
241.40423,87.63
241.40433,83.39
241.40443,87.63
241.40453,80.21
241.40463,73.88
241.40473,68.63
241.40483,66.53
241.40493,46.76
241.40503,61.30
241.40513,50.90
241.40523,48.83
241.40533,70.73
241.40543,57.13
241.40553,51.94
241.40563,67.58
241.40573,75.99
241.40583,83.39
241.40593,335.61
241.40603,353.24
241.40613,485.81
241.40623,486.23
241.40633,398.41
241.40643,288.42
241.40653,203.25
241.40663,158.92
241.40673,94.03
241.40683,98.30
241.40693,113.37
241.40703,89.76
241.40713,98.30
241.40723,101.52
241.40733,82.33
241.40743,120.96
241.40753,79.16
241.40763,72.83
241.40773,68.63
241.40783,54.01
241.40793,72.83
241.40803,69.68
241.40813,65.48
241.40823,61.30
241.40833,216.38
241.40843,229.03
241.40853,257.61
241.40863,299.43
241.40873,281.03
241.40883,188.05
241.40893,148.18
241.40903,61.30
241.40913,78.10
241.40923,58.17
241.40933,56.09
241.40943,69.68
241.40953,84.45
241.40963,81.27
241.40973,83.39
241.40983,131.88
241.40993,157.29
241.41003,141.07
241.41013,140.52
241.41023,142.19
241.41033,92.96
241.41043,99.37
241.41053,83.39
241.41063,163.99
241.41073,193.49
241.41083,405.79
241.41093,448.17
241.41103,380.84
241.41113,291.76
241.41123,196.97
241.41133,165.61
241.41143,148.04
241.41153,182.34
241.41163,206.31
241.41173,184.43
241.41183,155.71
241.41193,86.57
241.41203,82.33
241.41213,80.21
241.41223,85.51
241.41233,82.33
241.41243,90.83
241.41253,88.70
241.41263,88.70
241.41273,80.21
241.41283,56.09
241.41293,36.46
241.41303,58.17
241.41313,68.63
241.41323,87.63
241.41333,91.89
241.41343,101.52
241.41353,79.16
241.41363,74.93
241.41373,61.30
241.41383,54.01
241.41393,61.30
241.41403,47.79
241.41413,75.99
241.41423,81.27
241.41433,79.16
241.41443,77.04
241.41453,74.93
241.41463,97.23
241.41473,96.16
241.41483,110.13
241.41493,92.14
241.41503,84.48
241.41513,83.50
241.41523,85.73
241.41533,58.17
241.41543,58.17
241.41553,70.73
241.41563,70.73
241.41573,77.04
241.41583,64.44
241.41593,70.73
241.41603,58.17
241.41613,73.88
241.41623,62.35
241.41633,64.44
241.41643,55.05
241.41653,64.44
241.41663,60.26
241.41673,48.83
241.41683,54.01
241.41693,41.60
241.41703,57.13
241.41713,63.39
241.41723,59.21
241.41733,62.35
241.41743,77.04
241.41753,56.09
241.41763,67.58
241.41773,77.04
241.41783,127.50
241.41793,168.47
241.41803,154.59
241.41813,140.10
241.41823,101.52
241.41833,83.39
241.41843,99.37
241.41853,88.70
241.41863,73.88
241.41873,63.39
241.41883,67.58
241.41893,80.21
241.41903,147.29
241.41913,183.14
241.41923,180.80
241.41933,180.80
241.41943,147.07
241.41953,128.59
241.41963,75.99
241.41973,74.93
241.41983,66.53
241.41993,70.73
241.42003,74.93
241.42013,68.63
241.42023,69.68
241.42033,56.09
241.42043,78.10
241.42053,56.09
241.42063,58.17
241.42073,59.21
241.42083,68.63
241.42093,62.35
241.42103,71.78
241.42113,52.97
241.42123,47.79
241.42133,67.58
241.42143,71.78
241.42153,55.05
241.42163,59.21
241.42173,66.53
241.42183,62.35
241.42193,56.09
241.42203,79.16
241.42213,95.09
241.42223,90.83
241.42233,119.88
241.42243,148.40
241.42253,140.24
241.42263,142.87
241.42273,140.10
241.42283,88.70
241.42293,92.96
241.42303,78.10
241.42313,87.63
241.42323,72.83
241.42333,79.16
241.42343,312.01
241.42353,314.49
241.42363,369.97
241.42373,334.14
241.42383,329.12
241.42393,273.78
241.42403,311.42
241.42413,428.93
241.42423,498.22
241.42433,427.82
241.42443,334.00
241.42453,246.04
241.42463,162.54
241.42473,101.52
241.42483,85.51
241.42493,81.27
241.42503,67.58
241.42513,85.51
241.42523,73.88
241.42533,68.63
241.42543,73.88
241.42553,65.48
241.42563,63.39
241.42573,114.45
241.42583,158.40
241.42593,154.04
241.42603,172.58
241.42613,163.24
241.42623,144.14
241.42633,113.37
241.42643,110.13
241.42653,73.88
241.42663,69.68
241.42673,62.35
241.42683,59.21
241.42693,68.63
241.42703,57.13
241.42713,91.89
241.42723,101.52
241.42733,106.89
241.42743,91.89
241.42753,72.83
241.42763,68.63
241.42773,47.79
241.42783,70.73
241.42793,94.03
241.42803,75.99
241.42813,64.44
241.42823,64.44
241.42833,64.44
241.42843,49.86
241.42853,65.48
241.42863,60.26
241.42873,55.05
241.42883,59.80
241.42893,54.37
241.42903,67.58
241.42913,45.86
241.42923,68.31
241.42933,62.17
241.42943,73.88
241.42953,46.76
241.42963,51.94
241.42973,57.13
241.42983,55.05
241.42993,73.88
241.43003,101.52
241.43013,116.62
241.43023,102.59
241.43033,105.82
241.43043,82.33
241.43053,87.63
241.43063,64.44
241.43073,230.35
241.43083,412.62
241.43093,921.71
241.43103,1044.11
241.43113,971.20
241.43123,704.39
241.43133,514.94
241.43143,321.32
241.43153,216.91
241.43163,149.02
241.43173,110.13
241.43183,101.52
241.43193,95.09
241.43203,107.97
241.43213,65.48
241.43223,79.16
241.43233,62.35
241.43243,65.48
241.43253,61.30
241.43263,65.48
241.43273,60.26
241.43283,50.90
241.43293,52.97
241.43303,59.21
241.43313,55.05
241.43323,63.39
241.43333,52.97
241.43343,54.01
241.43353,51.94
241.43363,72.83
241.43373,84.45
241.43383,109.05
241.43393,112.29
241.43403,120.96
241.43413,118.79
241.43423,98.30
241.43433,87.63
241.43443,84.45
241.43453,67.58
241.43463,50.90
241.43473,59.21
241.43483,85.51
241.43493,140.67
241.43503,161.15
241.43513,257.33
241.43523,481.07
241.43533,589.24
241.43543,586.32
241.43553,545.89
241.43563,336.37
241.43573,227.08
241.43583,174.39
241.43593,97.23
241.43603,80.21
241.43613,123.14
241.43623,147.49
241.43633,275.73
241.43643,301.10
241.43653,288.28
241.43663,203.52
241.43673,170.72
241.43683,173.83
241.43693,142.05
241.43703,144.70
241.43713,97.23
241.43723,78.10
241.43733,70.73
241.43743,70.73
241.43753,69.68
241.43763,59.21
241.43773,47.79
241.43783,54.01
241.43793,55.05
241.43803,75.99
241.43813,78.10
241.43823,82.33
241.43833,84.45
241.43843,85.51
241.43853,112.29
241.43863,128.59
241.43873,132.97
241.43883,154.32
241.43893,144.98
241.43903,157.38
241.43913,157.52
241.43923,107.97
241.43933,99.37
241.43943,100.45
241.43953,103.67
241.43963,110.13
241.43973,261.07
241.43983,280.61
241.43993,302.92
241.44003,391.02
241.44013,320.76
241.44023,267.23
241.44033,195.58
241.44043,160.73
241.44053,95.09
241.44063,85.51
241.44073,105.82
241.44083,81.27
241.44093,87.63
241.44103,69.68
241.44113,84.45
241.44123,86.57
241.44133,90.83
241.44143,88.70
241.44153,59.21
241.44163,62.35
241.44173,63.39
241.44183,44.70
241.44193,55.05
241.44203,89.76
241.44213,95.09
241.44223,97.23
241.44233,77.04
241.44243,94.03
241.44253,100.45
241.44263,104.74
241.44273,111.21
241.44283,122.11
241.44293,79.16
241.44303,79.32
241.44313,67.61
241.44323,51.30
241.44333,65.94
241.44343,52.97
241.44353,83.39
241.44363,92.96
241.44373,98.30
241.44383,97.23
241.44393,149.51
241.44403,155.99
241.44413,150.83
241.44423,156.55
241.44433,150.83
241.44443,106.89
241.44453,86.57
241.44463,123.14
241.44473,122.05
241.44483,110.13
241.44493,102.59
241.44503,98.30
241.44513,77.04
241.44523,86.57
241.44533,79.16
241.44543,67.58
241.44553,64.44
241.44563,55.05
241.44573,70.73
241.44583,52.97
241.44593,52.97
241.44603,112.29
241.44613,115.54
241.44623,147.29
241.44633,149.99
241.44643,89.76
241.44653,67.58
241.44663,79.16
241.44673,56.09
241.44683,67.58
241.44693,65.48
241.44703,89.76
241.44713,95.09
241.44723,78.10
241.44733,71.78
241.44743,77.04
241.44753,92.96
241.44763,118.79
241.44773,117.70
241.44783,129.69
241.44793,100.45
241.44803,91.89
241.44813,94.03
241.44823,117.70
241.44833,126.41
241.44843,107.97
241.44853,104.74
241.44863,67.58
241.44873,71.78
241.44883,58.17
241.44893,66.53
241.44903,59.21
241.44913,49.86
241.44923,60.26
241.44933,74.93
241.44943,86.57
241.44953,77.04
241.44963,73.88
241.44973,85.51
241.44983,56.09
241.44993,81.27
241.45003,105.82
241.45013,135.17
241.45023,140.93
241.45033,162.54
241.45043,156.13
241.45053,101.52
241.45063,64.44
241.45073,58.17
241.45083,40.57
241.45093,65.48
241.45103,69.68
241.45113,91.89
241.45123,110.13
241.45133,128.59
241.45143,103.67
241.45153,85.51
241.45163,78.10
241.45173,130.78
241.45183,150.62
241.45193,148.60
241.45203,143.30
241.45213,79.16
241.45223,74.93
241.45233,70.73
241.45243,115.54
241.45253,137.36
241.45263,132.97
241.45273,142.87
241.45283,153.34
241.45293,212.31
241.45303,235.31
241.45313,232.10
241.45323,222.62
241.45333,173.41
241.45343,146.51
241.45353,232.69
241.45363,257.61
241.45373,388.79
241.45383,467.13
241.45393,431.86
241.45403,361.05
241.45413,247.02
241.45423,170.90
241.45433,109.05
241.45443,82.33
241.45453,67.58
241.45463,56.09
241.45473,60.26
241.45483,37.49
241.45493,48.83
241.45503,62.35
241.45513,65.48
241.45523,84.45
241.45533,88.70
241.45543,80.21
241.45553,90.83
241.45563,60.26
241.45573,84.45
241.45583,119.88
241.45593,114.45
241.45603,110.13
241.45613,112.29
241.45623,138.46
241.45633,152.84
241.45643,151.81
241.45653,187.07
241.45663,176.34
241.45673,142.75
241.45683,154.46
241.45693,127.13
241.45703,90.83
241.45713,75.99
241.45723,79.46
241.45733,78.76
241.45743,102.88
241.45753,83.92
241.45763,96.33
241.45773,69.84
241.45783,55.62
241.45793,62.03
241.45803,68.45
241.45813,86.71
241.45823,93.40
241.45833,101.07
241.45843,87.40
241.45853,92.84
241.45863,98.70
241.45873,83.64
241.45883,84.34
241.45893,85.73
241.45903,52.00
241.45913,64.40
241.45923,64.82
241.45933,103.30
241.45943,104.69
241.45953,84.48
241.45963,85.03
241.45973,72.21
241.45983,77.65
241.45993,96.33
241.46003,112.50
241.46013,120.86
241.46023,109.71
241.46033,93.96
241.46043,75.97
241.46053,79.32
241.46063,55.48
241.46073,49.91
241.46083,55.90
241.46093,83.22
241.46103,84.89
241.46113,76.25
241.46123,52.00
241.46133,71.37
241.46143,71.51
241.46153,63.29
241.46163,104.41
241.46173,118.91
241.46183,123.37
241.46193,129.08
241.46203,115.28
241.46213,86.85
241.46223,80.43
241.46233,96.74
241.46243,122.25
241.46253,127.83
241.46263,109.85
241.46273,86.01
241.46283,103.71
241.46293,111.24
241.46303,94.51
241.46313,96.46
241.46323,80.02
241.46333,81.27
241.46343,75.42
241.46353,91.31
241.46363,208.96
241.46373,726.83
241.46383,932.86
241.46393,919.90
241.46403,728.50
241.46413,470.48
241.46423,280.61
241.46433,169.65
241.46443,119.05
241.46453,99.67
241.46463,83.36
241.46473,75.97
241.46483,68.03
241.46493,69.98
241.46503,69.14
241.46513,57.43
241.46523,61.20
241.46533,67.19
241.46543,91.86
241.46553,102.46
241.46563,114.87
241.46573,101.62
241.46583,83.50
241.46593,81.13
241.46603,84.06
241.46613,69.98
241.46623,48.09
241.46633,42.10
241.46643,107.76
241.46653,147.35
241.46663,154.73
241.46673,138.01
241.46683,114.87
241.46693,170.63
241.46703,216.77
241.46713,229.03
241.46723,210.91
241.46733,147.76
241.46743,125.18
241.46753,112.36
241.46763,77.92
241.46773,66.91
241.46783,132.71
241.46793,140.93
241.46803,151.11
241.46813,120.72
241.46823,81.13
241.46833,64.96
241.46843,80.29
241.46853,92.28
241.46863,97.30
241.46873,89.08
241.46883,149.16
241.46893,293.02
241.46903,355.89
241.46913,310.58
241.46923,228.76
241.46933,172.30
241.46943,158.92
241.46953,146.79
241.46963,138.01
241.46973,105.25
241.46983,106.78
241.46993,105.80
241.47003,95.49
241.47013,88.94
241.47023,110.96
241.47033,118.35
241.47043,110.27
241.47053,111.66
241.47063,127.55
241.47073,111.94
241.47083,98.30
241.47093,79.16
241.47103,84.45
241.47113,80.15
241.47123,60.92
241.47133,73.60
241.47143,104.74
241.47153,159.52
241.47163,150.69
241.47173,106.89
241.47183,79.16
241.47193,81.27
241.47203,78.10
241.47213,83.39
241.47223,85.51
241.47233,155.06
241.47243,149.72
241.47253,161.43
241.47263,176.06
241.47273,100.45
241.47283,79.16
241.47293,86.57
241.47303,62.35
241.47313,56.09
241.47323,61.30
241.47333,44.70
241.47343,60.26
241.47353,48.83
241.47363,49.86
241.47373,55.05
241.47383,72.83
241.47393,58.17
241.47403,54.01
241.47413,60.26
241.47423,48.83
241.47433,40.57
241.47443,54.01
241.47453,67.58
241.47463,68.63
241.47473,84.45
241.47483,66.53
241.47493,66.53
241.47503,63.39
241.47513,65.48
241.47523,69.68
241.47533,49.86
241.47543,62.35
241.47553,62.35
241.47563,67.58
241.47573,74.93
241.47583,62.35
241.47593,85.51
241.47603,72.83
241.47613,74.93
241.47623,61.30
241.47633,57.13
241.47643,109.05
241.47653,148.40
241.47663,142.33
241.47673,149.99
241.47683,117.70
241.47693,112.29
241.47703,98.30
241.47713,104.74
241.47723,102.59
241.47733,100.45
241.47743,99.37
241.47753,87.63
241.47763,85.51
241.47773,96.16
241.47783,67.58
241.47793,78.10
241.47803,68.63
241.47813,58.17
241.47823,79.16
241.47833,94.03
241.47843,58.17
241.47853,62.35
241.47863,66.53
241.47873,92.96
241.47883,101.52
241.47893,80.21
241.47903,95.09
241.47913,86.57
241.47923,81.27
241.47933,94.03
241.47943,83.39
241.47953,83.39
241.47963,149.51
241.47973,143.30
241.47983,183.87
241.47993,254.82
241.48003,437.72
241.48013,470.75
241.48023,462.81
241.48033,361.19
241.48043,226.66
241.48053,155.29
241.48063,78.10
241.48073,63.39
241.48083,68.63
241.48093,61.30
241.48103,70.73
241.48113,80.21
241.48123,98.30
241.48133,103.67
241.48143,92.96
241.48153,80.21
241.48163,90.83
241.48173,111.21
241.48183,149.51
241.48193,145.95
241.48203,170.63
241.48213,105.82
241.48223,125.32
241.48233,268.24
241.48243,287.02
241.48253,331.49
241.48263,323.83
241.48273,226.11
241.48283,182.34
241.48293,148.18
241.48303,75.99
241.48313,83.39
241.48323,54.01
241.48333,52.97
241.48343,63.39
241.48353,74.93
241.48363,98.30
241.48373,92.96
241.48383,79.46
241.48393,74.58
241.48403,92.96
241.48413,86.57
241.48423,88.38
241.48433,65.48
241.48443,65.10
241.48453,41.26
241.48463,59.21
241.48473,85.51
241.48483,122.05
241.48493,200.24
241.48503,216.35
241.48513,220.53
241.48523,202.13
241.48533,155.15
241.48543,150.97
241.48553,105.82
241.48563,135.17
241.48573,117.70
241.48583,111.21
241.48593,105.82
241.48603,118.79
241.48613,128.59
241.48623,135.17
241.48633,98.30
241.48643,135.17
241.48653,200.24
241.48663,201.15
241.48673,219.28
241.48683,202.13
241.48693,174.67
241.48703,157.10
241.48713,112.29
241.48723,135.17
241.48733,116.62
241.48743,104.74
241.48753,100.45
241.48763,134.07
241.48773,163.99
241.48783,155.43
241.48793,145.95
241.48803,161.84
241.48813,158.92
241.48823,142.87
241.48833,140.38
241.48843,150.97
241.48853,148.32
241.48863,187.21
241.48873,221.92
241.48883,180.66
241.48893,134.07
241.48903,104.74
241.48913,94.03
241.48923,86.57
241.48933,60.26
241.48943,59.21
241.48953,59.21
241.48963,71.78
241.48973,80.21
241.48983,57.13
241.48993,86.57
241.49003,80.21
241.49013,79.16
241.49023,73.88
241.49033,60.26
241.49043,44.70
241.49053,59.21
241.49063,75.99
241.49073,67.58
241.49083,89.76
241.49093,80.21
241.49103,69.68
241.49113,73.88
241.49123,64.44
241.49133,72.83
241.49143,85.51
241.49153,55.05
241.49163,58.17
241.49173,58.17
241.49183,109.05
241.49193,82.33
241.49203,96.16
241.49213,88.70
241.49223,70.73
241.49233,87.63
241.49243,87.63
241.49253,90.83
241.49263,80.21
241.49273,141.77
241.49283,180.80
241.49293,316.02
241.49303,359.79
241.49313,343.62
241.49323,282.29
241.49333,187.21
241.49343,124.23
241.49353,111.21
241.49363,155.06
241.49373,160.73
241.49383,165.19
241.49393,155.57
241.49403,92.96
241.49413,109.05
241.49423,145.08
241.49433,193.38
241.49443,177.74
241.49453,191.12
241.49463,174.11
241.49473,143.72
241.49483,96.16
241.49493,84.45
241.49503,82.33
241.49513,84.45
241.49523,90.83
241.49533,92.96
241.49543,88.70
241.49553,71.78
241.49563,71.78
241.49573,54.01
241.49583,79.16
241.49593,85.51
241.49603,73.88
241.49613,92.96
241.49623,107.97
241.49633,117.70
241.49643,109.05
241.49653,120.96
241.49663,87.63
241.49673,81.27
241.49683,85.51
241.49693,71.78
241.49703,90.83
241.49713,343.13
241.49723,366.90
241.49733,509.93
241.49743,504.77
241.49753,397.01
241.49763,306.68
241.49773,220.39
241.49783,138.01
241.49793,113.75
241.49803,147.21
241.49813,179.83
241.49823,177.46
241.49833,133.82
241.49843,115.42
241.49853,89.76
241.49863,94.93
241.49873,95.21
241.49883,62.03
241.49893,66.08
241.49903,74.58
241.49913,101.76
241.49923,188.33
241.49933,426.15
241.49943,582.97
241.49953,757.64
241.49963,672.60
241.49973,514.66
241.49983,359.37
241.49993,258.59
241.50003,166.44
241.50013,117.65
241.50023,128.67
241.50033,169.09
241.50043,155.43
241.50053,148.60
241.50063,140.38
241.50073,125.04
241.50083,95.07
241.50093,95.63
241.50103,81.41
241.50113,77.23
241.50123,84.34
241.50133,188.89
241.50143,325.36
241.50153,721.53
241.50163,1633.07
241.50173,1863.50
241.50183,1741.25
241.50193,1397.90
241.50203,1114.50
241.50213,787.75
241.50223,561.22
241.50233,348.22
241.50243,215.65
241.50253,142.33
241.50263,98.14
241.50273,93.54
241.50283,60.36
241.50293,46.00
241.50303,47.81
241.50313,84.48
241.50323,91.73
241.50333,83.36
241.50343,83.36
241.50353,81.83
241.50363,124.07
241.50373,289.39
241.50383,530.28
241.50393,656.85
241.50403,616.29
241.50413,467.97
241.50423,334.98
241.50433,234.33
241.50443,149.44
241.50453,124.07
241.50463,104.27
241.50473,90.19
241.50483,67.89
241.50493,88.52
241.50503,90.89
241.50513,145.81
241.50523,306.40
241.50533,421.27
241.50543,478.70
241.50553,714.01
241.50563,784.54
241.50573,707.73
241.50583,511.74
241.50593,347.94
241.50603,249.11
241.50613,182.20
241.50623,109.15
241.50633,60.36
241.50643,55.76
241.50653,79.74
241.50663,157.80
241.50673,224.29
241.50683,206.59
241.50693,166.86
241.50703,141.07
241.50713,136.61
241.50723,91.31
241.50733,72.35
241.50743,66.77
241.50753,76.95
241.50763,75.83
241.50773,103.57
241.50783,429.21
241.50793,721.95
241.50803,731.85
241.50813,755.41
241.50823,631.62
241.50833,499.47
241.50843,363.00
241.50853,260.96
241.50863,383.21
241.50873,695.05
241.50883,826.08
241.50893,659.50
241.50903,494.87
241.50913,344.88
241.50923,242.14
241.50933,168.53
241.50943,110.27
241.50953,83.36
241.50963,84.20
241.50973,100.09
241.50983,126.85
241.50993,204.50
241.51003,235.86
241.51013,234.19
241.51023,194.18
241.51033,168.40
241.51043,124.90
241.51053,115.42
241.51063,124.76
241.51073,125.04
241.51083,93.68
241.51093,100.37
241.51103,97.30
241.51113,84.89
241.51123,96.88
241.51133,112.08
241.51143,114.17
241.51153,98.28
241.51163,108.45
241.51173,92.98
241.51183,64.68
241.51193,63.98
241.51203,79.74
241.51213,71.23
241.51223,78.06
241.51233,85.87
241.51243,177.48
241.51253,171.74
241.51263,250.78
241.51273,263.74
241.51283,246.74
241.51293,172.58
241.51303,94.03
241.51313,87.63
241.51323,86.57
241.51333,90.83
241.51343,82.33
241.51353,70.73
241.51363,86.57
241.51373,77.04
241.51383,122.05
241.51393,113.37
241.51403,118.79
241.51413,111.21
241.51423,79.16
241.51433,86.57
241.51443,103.67
241.51453,60.26
241.51463,89.76
241.51473,96.16
241.51483,71.78
241.51493,74.93
241.51503,57.13
241.51513,63.39
241.51523,41.60
241.51533,49.86
241.51543,65.48
241.51553,64.44
241.51563,84.45
241.51573,81.27
241.51583,83.39
241.51593,83.39
241.51603,78.10
241.51613,62.35
241.51623,52.97
241.51633,62.35
241.51643,65.48
241.51653,58.17
241.51663,81.27
241.51673,125.32
241.51683,160.64
241.51693,151.39
241.51703,200.60
241.51713,159.47
241.51723,139.82
241.51733,92.96
241.51743,156.17
241.51753,181.78
241.51763,296.92
241.51773,310.58
241.51783,225.55
241.51793,191.68
241.51803,166.72
241.51813,149.72
241.51823,112.29
241.51833,110.13
241.51843,88.70
241.51853,82.33
241.51863,89.76
241.51873,72.83
241.51883,58.17
241.51893,78.10
241.51903,83.39
241.51913,103.67
241.51923,109.05
241.51933,104.74
241.51943,86.57
241.51953,97.23
241.51963,80.21
241.51973,63.39
241.51983,54.01
241.51993,70.73
241.52003,92.96
241.52013,100.45
241.52023,695.19
241.52033,1175.98
241.52043,2311.95
241.52053,2768.76
241.52063,2279.19
241.52073,1559.75
241.52083,957.12
241.52093,625.77
241.52103,465.74
241.52113,341.39
241.52123,261.10
241.52133,208.40
241.52143,159.47
241.52153,90.83
241.52163,80.21
241.52173,63.39
241.52183,124.23
241.52193,311.28
241.52203,1216.82
241.52213,1525.59
241.52223,1508.31
241.52233,1057.63
241.52243,594.68
241.52253,335.68
241.52263,232.52
241.52273,169.51
241.52283,114.45
241.52293,82.33
241.52303,81.27
241.52313,87.63
241.52323,69.68
241.52333,64.44
241.52343,65.48
241.52353,80.21
241.52363,82.33
241.52373,107.97
241.52383,97.23
241.52393,113.37
241.52403,98.30
241.52413,81.27
241.52423,79.16
241.52433,89.76
241.52443,102.59
241.52453,88.70
241.52463,90.83
241.52473,83.39


          Printed:2025-05-30 09:12:24
